DATE 2015:202:14:32:28 obsn   0 az 321 el 34 freq_MHz  1415.0000 Tsys 165.800 Tant  8.305 vlsr  -27.26 glat -2.092 glon 111.560 source CasA 
Fstart 1413.997 fstop 1416.003 spacing 0.009375 bw    2.400 fbw    2.000 MHz nfreq 256 nsam 1048576 npoint 214 integ    18 sigma    0.402 bsw 0
Spectrum 
 220.354  217.198  216.390  216.178  217.226  217.966  215.367  217.459  217.961  217.115  215.600  215.505  214.972  215.349  214.973  213.227  214.269  214.931  215.942  216.314  213.986  216.594  214.771  216.454  218.248  215.527  216.476  216.034  216.704  216.417  219.955  215.585  217.787  217.624  216.819  216.608  215.991  214.980  217.502  218.663  216.403  216.616  220.401  219.129  215.465  216.489  217.038  215.783  215.817  216.102  214.681  213.858  216.971  214.930  215.811  215.851  214.471  214.777  214.992  216.510  215.197  216.701  214.302  214.746  216.306  215.963  215.999  215.188  215.742  215.589  215.103  216.044  214.775  216.098  215.666  216.197  215.029  214.057  214.848  215.359  215.325  214.605  214.383  214.314  215.056  215.695  215.698  215.177  215.771  214.577  213.205  214.203  214.307  213.677  213.329  214.539  216.030  215.531  214.135  215.951  215.352  214.794  215.608  215.421  215.395  215.595  215.121  216.193  215.080  214.112  215.042  215.117  215.139  214.201  214.653  214.517  215.615  215.458  216.817  215.138  213.500  214.653  216.209  215.851  215.829  216.461  215.616  215.322  216.283  215.026  214.484  216.464  216.454  215.519  216.968  215.808  216.099  217.510  214.491  215.463  216.214  215.119  216.553  215.053  216.285  216.218  215.068  217.601  223.072  214.627  214.816  215.424  214.852  215.671  214.527  215.602  218.000  217.702  215.005  215.436  216.295  215.673  214.758  215.409  216.453  217.541  217.708  215.712  216.311  217.386  215.750  217.186  217.272  217.134  215.881  216.957  217.008  216.374  215.679  216.059  217.084  217.548  218.769  217.450  218.057  216.536  217.408  216.537  216.399  215.652  216.116  216.098  216.328  215.535  215.723  215.694  216.547  217.544  217.172  216.823  217.275  217.264  217.368  218.468  218.014  218.431  217.443  217.001  216.038  216.422  215.385  216.209  234.996  217.694 
DATE 2015:202:14:32:42 obsn   1 az 321 el 34 freq_MHz  1415.0000 Tsys 165.800 Tant  6.775 vlsr  -27.26 glat -2.092 glon 111.560 source CasA 
Fstart 1413.997 fstop 1416.003 spacing 0.009375 bw    2.400 fbw    2.000 MHz nfreq 256 nsam 1048576 npoint 214 integ    20 sigma    0.380 bsw 0
Spectrum 
 215.896  212.870  212.251  211.819  212.878  213.553  211.059  213.104  213.684  212.733  211.045  211.193  210.793  210.892  210.359  208.929  210.088  210.406  211.589  211.899  209.856  211.977  210.290  211.889  213.742  211.060  212.170  211.636  212.007  211.769  215.421  211.170  213.051  213.024  212.261  211.817  211.626  210.542  212.739  213.766  211.971  211.874  215.725  215.442  210.922  211.715  212.456  211.418  211.436  211.571  210.040  209.333  212.269  210.659  211.195  211.160  209.769  210.324  210.408  211.659  210.563  212.021  209.988  210.163  211.449  211.213  211.175  210.418  211.076  210.922  210.499  211.320  210.172  211.435  210.752  211.574  210.311  209.401  210.686  210.446  210.812  210.066  209.649  209.772  210.318  210.907  211.101  210.495  210.938  209.803  208.591  209.307  209.501  209.191  208.764  210.065  211.164  210.861  209.231  211.208  210.606  210.201  210.764  210.583  210.732  210.784  210.490  211.447  210.257  209.435  210.129  210.298  210.533  209.455  210.105  209.792  211.004  210.640  211.862  210.183  208.793  209.735  211.454  211.200  210.905  211.809  210.682  210.488  211.542  209.976  209.580  211.565  211.675  210.706  212.069  211.082  211.053  212.719  209.623  210.446  211.161  210.372  211.453  210.309  211.553  211.412  210.461  212.774  218.654  209.832  210.061  210.722  210.072  210.845  209.886  210.912  213.189  212.750  210.292  210.648  211.410  210.807  210.110  210.722  211.565  212.548  212.801  210.820  211.495  212.302  211.189  212.097  212.274  212.376  211.137  212.293  212.033  211.549  211.181  211.378  212.004  212.609  213.716  212.606  213.022  211.597  212.397  211.756  211.432  211.037  211.291  211.134  211.541  210.883  210.957  210.946  211.642  212.646  212.298  212.221  212.695  212.393  212.717  213.615  213.116  213.421  212.638  212.326  211.416  212.111  210.765  211.242  230.405  213.013 
DATE 2015:202:14:32:59 obsn   2 az 314 el 33 freq_MHz  1415.0000 Tsys 165.800 Tant  5.331 vlsr  -27.26 glat -2.092 glon 111.560 source CasA 
Fstart 1413.997 fstop 1416.003 spacing 0.009375 bw    2.400 fbw    2.000 MHz nfreq 256 nsam 1048576 npoint 214 integ     2 sigma    2.317 bsw 3
Spectrum 
 176.176  174.831  172.085  173.871  173.360  175.138  171.076  176.398  174.006  170.770  170.753  172.543  173.896  172.365  170.481  170.210  172.780  170.962  171.479  175.618  172.388  174.530  170.601  171.397  173.513  170.992  170.917  173.018  174.248  172.937  175.316  171.823  174.956  172.251  174.080  172.627  173.594  173.595  173.115  172.992  170.991  172.353  171.664  175.415  170.588  171.498  174.032  172.338  170.404  171.321  169.661  170.627  171.274  171.557  171.219  169.844  170.441  172.977  169.606  173.708  170.537  170.439  169.807  168.927  172.100  171.628  171.121  171.252  171.704  172.225  170.119  171.061  173.176  170.513  171.039  170.859  170.146  172.700  171.276  169.654  173.168  169.831  169.370  171.737  172.894  169.663  168.606  169.235  167.632  167.441  170.774  170.881  168.570  170.362  167.793  170.461  167.944  171.024  170.612  169.534  169.531  169.977  171.512  171.629  170.355  169.132  169.853  168.107  170.878  169.697  169.645  169.060  168.325  170.335  169.816  169.045  169.225  169.060  170.503  169.624  170.166  170.402  170.318  170.585  169.152  167.922  169.079  168.838  172.307  169.830  171.055  172.808  172.813  169.872  170.174  169.716  170.537  172.321  169.129  171.842  170.017  170.122  172.674  171.691  173.564  169.846  170.537  170.494  172.797  168.408  170.352  169.344  169.502  169.855  171.478  172.852  170.402  171.886  170.442  173.083  171.011  171.598  172.783  172.463  171.291  171.860  170.801  170.923  173.731  169.651  171.098  171.626  170.305  172.947  169.321  168.841  170.818  173.247  169.071  172.726  170.975  172.290  173.030  172.688  169.672  170.234  172.119  172.651  171.231  169.628  171.937  170.396  172.122  171.627  168.896  169.737  167.607  171.777  170.793  171.787  171.809  171.704  172.376  171.252  171.613  170.255  171.268  171.155  173.087  170.374  168.445  168.851  184.573  170.644 
DATE 2015:202:14:33:17 obsn   3 az 321 el 33 freq_MHz  1415.0000 Tsys 165.800 Tant  9.303 vlsr  -27.26 glat -2.092 glon 111.560 source CasA 
Fstart 1413.997 fstop 1416.003 spacing 0.009375 bw    2.400 fbw    2.000 MHz nfreq 256 nsam 1048576 npoint 214 integ     4 sigma    1.638 bsw 4
Spectrum 
   0.370    0.166    4.019    0.446    1.485   -0.463    3.445   -2.818    0.293    6.460    1.981    3.692    1.545    0.468    2.085    2.497    1.503    3.456    2.182   -0.833    1.601    0.800    3.603    4.197    1.694    2.925    4.676    3.766    1.417    2.749    3.296    4.592    0.071    1.420    1.962    1.869   -1.281   -0.837    1.588    3.910    5.711    2.829    2.361    9.598    3.157    1.401   -0.107    2.272    2.036    2.761    4.390    4.053    1.540    2.763    2.814    4.276    3.471    2.042    3.815   -0.559    3.897    2.780    5.275    2.588    2.156    2.564    1.053   -0.948    1.182    1.837    3.870    2.840    1.133    4.297    0.638    5.557    3.410    2.959    4.006    4.492    1.371    2.256    1.589    2.579    0.278    3.369    3.619    3.174    3.334    1.748    2.389    3.484    4.391    1.766    5.616    1.550    2.032    1.671    1.974    4.445    4.418    2.770   -1.163    1.702    1.514    4.727    2.482    6.131    1.916    2.832    2.488    4.219    4.938    1.403    3.205    2.796    3.011    3.894    4.131    4.638    0.530    1.768    2.581    1.991    3.561    4.512    3.698    4.537    2.754    2.895    1.190    1.402    4.957    1.432    3.397    2.244    3.194    2.659    4.631   -1.032    5.426    0.731   -1.051    1.558    1.919    3.905    6.333    4.673    9.977    4.794    1.147    2.718    2.485    3.787    1.341    1.509    6.555    5.162    3.171    0.464    2.945    1.645    1.750    0.735   -0.547    1.530    6.315    1.008   -2.490    4.320    3.651   -0.054    2.016    2.549    4.592    6.172    4.615    0.988    2.379    3.055    1.427    1.719    0.895    0.635    4.014    3.192    2.427    2.917    2.869    4.419    4.273    4.156    2.387    1.135    4.321    4.822    4.652    0.837    1.201    3.194    1.685    1.928    2.760    1.359    1.423    5.125    3.305    2.824    1.081    4.449    4.146    3.929   26.273    6.128 
DATE 2015:202:14:33:36 obsn   4 az 328 el 33 freq_MHz  1415.0000 Tsys 165.800 Tant  9.483 vlsr  -27.26 glat -2.092 glon 111.560 source CasA 
Fstart 1413.997 fstop 1416.003 spacing 0.009375 bw    2.400 fbw    2.000 MHz nfreq 256 nsam 1048576 npoint 214 integ     7 sigma    1.338 bsw 5
Spectrum 
   0.402   -0.104    2.233    0.858    3.422   -0.653    3.917   -1.946    1.280    4.771    2.174    2.283    2.125    0.589    1.708    0.659    0.192    2.912    2.889   -0.684    2.066    1.150    1.504    3.438    0.229    2.694    2.608    3.455    1.444    1.122    2.012    3.445    1.295    1.829    0.055    0.056   -2.136   -0.648    1.446    1.833    2.854    2.449    0.182    9.748    2.539   -0.125   -0.119    1.451    0.943    1.701    1.506    2.709   -0.363    1.781    1.911    0.981    2.189    0.185    1.284    0.455    2.645    0.108    2.433   -0.002    1.420    1.210    1.233   -1.624   -0.766    0.351    2.257    1.426    1.829    3.244   -0.532    3.333    1.773    1.113    3.005    2.694   -1.262    0.525    1.381    0.452   -1.579    1.334    3.087    2.637   -0.808    0.403   -0.192    0.918    1.669   -0.074    3.424   -0.041   -0.297   -0.611   -0.215    2.299    0.967    0.170   -0.053   -0.427   -0.334    2.629    1.188    2.556   -0.024    1.147    2.172    2.636    2.707   -0.375    0.472    0.271    1.357    1.320    1.464    3.210   -1.717   -1.992    1.646    1.346    0.060    1.888   -0.286    2.567    0.304    1.369   -0.744   -1.272    3.673   -0.076    2.096    0.922    1.353    1.451    2.323   -1.784    3.124   -1.296   -4.030   -0.020    1.004    2.289    4.983    1.895    8.794    1.714   -0.178    2.590    0.862    2.336   -0.337    0.060    5.087    2.560    1.346   -1.640    1.077   -0.394    0.857   -0.468   -0.199    0.235    4.660   -0.407   -3.518    2.853    1.243   -0.246   -0.448    1.334    1.407    1.289    2.273   -0.555   -1.046    1.974   -0.630    1.181    1.184   -0.637    1.884    0.487    1.518    1.368    1.105    3.339    3.339    2.728    0.013   -0.409    3.578    3.891    3.142    0.783   -0.041    1.475    0.609    1.638    1.297   -1.335    1.460    1.562    0.388    3.143    0.620    2.136    1.928    0.757    6.233    3.247 
DATE 2015:202:14:33:53 obsn   5 az 321 el 33 freq_MHz  1415.0000 Tsys 165.800 Tant  7.834 vlsr  -27.26 glat -2.092 glon 111.560 source CasA 
Fstart 1413.997 fstop 1416.003 spacing 0.009375 bw    2.400 fbw    2.000 MHz nfreq 256 nsam 1048576 npoint 214 integ     9 sigma    1.159 bsw 6
Spectrum 
   1.395    0.045    2.138    0.878    3.239   -0.206    3.467   -1.848    0.495    4.000    0.923    3.167    1.314    0.773    1.798    0.655    0.276    2.607    2.298   -0.702    1.529    0.115    0.868    3.093   -0.612    3.376    3.086    3.599    1.317    2.266    2.052    2.352    0.978    2.516   -0.352   -0.650   -2.090   -1.358    1.460    1.214    3.337    0.919   -0.035    9.734    3.071    0.763   -1.746    1.395    0.099    1.357    0.868    2.829    0.585    1.802    1.453    1.079    1.834    0.034    1.502   -0.093    1.554   -0.425    1.650    0.409    0.829    0.923    0.933   -0.684   -0.276   -0.817    0.471    0.921   -0.178    1.728    0.317    1.315    1.136   -0.813    2.398    0.896   -1.948    0.089    1.518    0.089   -1.634    1.229    2.393    2.239   -0.383    0.187    0.571    0.193    1.140    0.530    2.994   -0.709   -0.587    0.080   -0.270    0.976    0.301   -0.261    0.670   -0.218   -1.208    1.952    0.427   -0.168   -0.513    1.022    1.071    0.444    2.390   -2.176   -0.864    0.099    1.679    0.301   -0.279    2.255   -1.235   -2.556    1.766    0.671   -0.762    1.778   -1.677    1.505    1.275   -0.558   -0.533   -1.544    2.398   -0.520    1.436   -0.014   -0.134    0.008   -0.040   -2.500    0.890   -1.485   -4.723    0.078   -0.231    1.197    3.931    2.103    7.228    0.620   -0.089    2.587    0.244    3.044   -0.153   -0.325    4.465    1.002   -0.229   -2.205    0.328    0.724    0.422    0.036   -1.541   -1.315    2.530   -0.529   -1.981    2.698    0.215   -0.838   -1.188    1.515    1.744    0.445    1.520   -1.046   -0.007    0.951   -0.752   -0.015    1.205    0.285    2.357    0.851    0.873    1.235    0.418    1.573    2.369    1.601   -0.691   -1.961    3.613    2.219    3.809    0.399   -0.371    1.114    0.631    1.994    0.644   -1.418    1.359    1.925   -0.045    2.249    0.453    1.845    0.449   -0.218    3.789    2.163 
DATE 2015:202:14:34:12 obsn   6 az 314 el 33 freq_MHz  1415.0000 Tsys 165.800 Tant  5.341 vlsr  -27.26 glat -2.092 glon 111.560 source CasA 
Fstart 1413.997 fstop 1416.003 spacing 0.009375 bw    2.400 fbw    2.000 MHz nfreq 256 nsam 1048576 npoint 214 integ    11 sigma    1.036 bsw 7
Spectrum 
   2.281    0.807    1.413    0.710    2.968   -0.167    3.494   -1.249    0.999    4.412    0.812    2.430    0.785    1.327    1.326    0.410    1.020    2.581    2.098   -0.543    1.840    0.379    0.845    2.757   -0.323    3.413    2.397    3.181    1.920    2.576    2.739    2.800    1.322    2.541   -0.503   -1.272   -1.388   -1.651    1.201    1.630    3.121    1.048    0.416    9.449    3.527    1.609   -1.094    2.638    0.021    1.777    1.410    3.125    0.879    1.815    1.150    0.494    2.197    0.872    2.449    0.152    2.652    0.008    2.663    0.523    1.213    0.962    1.456   -0.117    0.801   -0.256    0.844    1.202    0.951    2.097    0.095    1.538    2.217    0.454    3.325    0.922   -0.539    0.533    1.571    0.603   -0.290    0.819    1.644    2.273    0.745    0.794    0.642    0.840    1.689    0.299    2.925    0.209    0.637   -0.203    0.132    1.407    0.770   -0.545    0.892    0.051   -0.655    2.441    1.071    1.379   -0.722    1.044    1.304    0.594    2.558   -1.730   -0.533    0.832    2.273    0.892    0.466    2.437   -0.049   -1.364    1.865    0.943    0.365    2.117   -0.840    1.527    1.964    0.660    1.088   -0.842    1.775   -0.406    1.036    0.595    0.395    1.420    0.416   -1.281    1.583   -0.775   -3.479   -0.233    0.171    1.294    3.566    1.232    8.206    1.207   -0.264    1.989    0.467    3.045    0.481   -0.425    3.517    1.192    0.496   -1.183    0.867    1.518    1.227    0.970   -0.131   -0.310    2.940    0.673   -0.575    2.893    1.400    0.007   -1.466    1.648    2.592    1.458    1.438   -0.517    0.369    1.859   -0.059    0.346    1.370   -0.292    2.525    1.568    2.162    1.992    0.144    1.477    1.954    1.715    0.515   -1.661    3.575    2.070    2.943    0.238    0.464    0.865    1.056    1.999    0.505    0.102    0.893    2.232    0.292    1.834    0.902    2.242    0.620   -0.198    9.779    2.571 
DATE 2015:202:14:34:31 obsn   7 az 321 el 33 freq_MHz  1415.0000 Tsys 165.800 Tant  8.588 vlsr  -27.26 glat -2.092 glon 111.560 source CasA 
Fstart 1413.997 fstop 1416.003 spacing 0.009375 bw    2.400 fbw    2.000 MHz nfreq 256 nsam 1048576 npoint 214 integ    13 sigma    0.946 bsw 8
Spectrum 
   2.232    0.746    1.781    1.602    2.426    0.884    3.184   -0.213    0.215    3.937    0.790    1.714    0.983    1.928    1.693    1.093    0.519    2.954    2.594    0.215    2.198    0.933    1.542    3.366   -0.288    3.380    2.518    3.260    1.901    2.338    3.467    2.445    1.339    2.532   -0.638   -0.818   -0.538   -1.084    1.890    2.280    3.530    1.446    0.489    9.844    3.499    1.564   -0.404    2.702    0.547    1.465    1.472    3.229    1.697    2.299    1.317    1.135    3.051    0.521    2.713    1.036    2.575   -0.319    2.381    0.892    1.466    1.237    2.110   -0.045    1.357    1.091    1.104    2.027    0.606    2.126    0.501    1.677    2.001    0.750    3.535    1.240    0.520    1.512    2.052    2.006    0.276    0.921    1.398    2.242    0.890    1.065    0.778    0.944    1.409    1.507    2.479    0.330    1.036    1.068    0.086    1.501    1.301    1.021    1.171   -0.069    0.327    2.317    1.402    2.049    0.308    1.153    1.723    1.150    3.018   -0.587    0.371    1.198    2.750    1.139    0.968    2.725    0.571   -0.626    2.452    1.074    0.808    2.772    0.136    2.254    2.025    1.184    1.322   -0.546    1.927    0.150    1.939    1.433    0.461    2.051    0.302   -0.294    1.935   -0.451   -2.329    0.390    1.448    1.464    3.530    2.021    9.413    1.123    0.797    1.748    0.659    3.201    0.102   -0.058    3.863    1.470    1.142   -0.833    1.752    2.430    1.856    1.391    0.770    0.071    2.451    1.312    0.445    2.428    1.953    0.288   -0.485    2.140    3.252    2.568    2.906    0.359    0.142    1.975    0.677    0.988    1.381   -0.151    2.964    2.198    1.936    2.137    0.604    1.794    1.393    2.009    1.892   -0.942    3.181    2.135    2.408    1.124    0.686    1.293    1.690    1.747    0.858    1.914    1.882    2.259    0.933    2.534    1.832    2.079    1.167    0.739   12.335    2.866 
DATE 2015:202:14:34:50 obsn   8 az 328 el 33 freq_MHz  1415.0000 Tsys 165.800 Tant  9.665 vlsr  -27.26 glat -2.092 glon 111.560 source CasA 
Fstart 1413.997 fstop 1416.003 spacing 0.009375 bw    2.400 fbw    2.000 MHz nfreq 256 nsam 1048576 npoint 214 integ    15 sigma    0.876 bsw 9
Spectrum 
   2.105    1.096    1.384    1.493    2.245    0.952    3.556   -0.022    0.362    3.318    1.049    1.428    1.373    1.914    1.996    0.795    0.076    2.277    2.182    0.391    2.566    0.839    1.631    3.101   -0.732    3.155    2.199    2.738    2.224    2.042    3.754    1.922    1.303    2.059   -0.343   -0.021   -0.260   -0.980    1.459    1.234    3.120    1.767    0.819    9.579    3.123    0.925   -0.175    2.466    0.706    1.044    1.115    2.824    0.805    1.806    1.585    0.907    2.706    0.723    2.037    1.038    1.947   -0.546    1.998    1.357    0.836    0.684    2.140   -0.320    1.643    0.470    0.695    1.638    0.809    1.829    0.601    0.812    2.003    0.248    2.567    1.245   -0.717    1.014    1.723    1.865   -0.238    0.887    1.314    2.012    0.734    0.479    0.556    0.382    1.418    1.241    2.232    0.228    0.792    0.662   -0.425    0.704    0.324    0.885    0.915   -0.470    0.414    1.844    0.543    1.255    0.076    0.867    2.250    1.004    2.631   -0.082    0.416    1.156    2.580    1.307    0.461    2.264    0.752   -0.637    2.794    0.692    1.178    2.119   -0.216    1.563    2.409    1.230    0.837   -0.599    1.592   -0.112    1.218    1.321    0.401    1.545    0.453   -0.361    1.561   -0.643   -2.440    0.353    0.070    1.253    3.289    1.482    8.947    0.923    0.533    2.348    0.686    2.342    0.038   -0.363    2.679    0.638    0.919   -1.501    1.065    2.016    1.198    1.922    1.431    0.864    2.749    1.300    1.032    1.858    1.892    0.258   -0.119    1.797    2.605    2.521    2.216   -0.295    0.713    1.720    0.657   -0.014    0.877   -0.121    2.181    1.831    1.963    2.049    0.179    1.809    1.523    2.331    1.832   -0.227    3.000    1.995    2.013    1.223    0.787    0.986    1.276    1.720    0.704    1.142    1.534    2.201    0.690    2.392    2.011    1.941    1.313    0.892    9.111    2.235 
DATE 2015:202:14:35:07 obsn   9 az 321 el 33 freq_MHz  1415.0000 Tsys 165.800 Tant 10.027 vlsr  -27.26 glat -2.092 glon 111.560 source CasA 
Fstart 1413.997 fstop 1416.003 spacing 0.009375 bw    2.400 fbw    2.000 MHz nfreq 256 nsam 1048576 npoint 214 integ    17 sigma    0.819 bsw 10
Spectrum 
   1.938    0.880    1.637    1.471    1.873    1.456    3.239    0.842    0.313    2.707    0.941    0.758    1.501    2.114    1.719    1.502    0.028    2.203    2.002    0.244    2.814    0.522    1.811    2.912   -0.388    2.865    2.708    2.238    1.705    1.638    3.120    2.218    1.353    1.603   -0.374   -0.097   -0.490   -0.824    1.366    0.730    2.244    1.261    0.694    9.113    3.014    0.780   -0.136    2.157    0.760    0.427    0.768    2.834    1.769    1.662    1.546    0.567    1.961    0.465    1.668    0.747    1.897   -0.602    1.869    0.417    1.045    0.189    1.799   -0.326    1.442    0.448    0.142    0.868    0.696    0.827    0.247    0.393    1.952    0.044    2.286    1.213   -1.443    0.621    1.536    1.688   -0.083    0.281    0.624    1.736    0.502   -0.087    0.399    0.469    1.322    1.001    1.849   -0.328    0.693    0.672   -0.993    0.888   -0.215   -0.234    0.503   -0.242   -0.001    1.033   -0.469    0.634    0.052    0.510    1.194    0.442    1.424   -1.218    0.302    1.208    1.865    0.838   -0.287    1.844    0.075   -1.315    2.408    0.194    0.413    1.762   -0.981    0.907    1.756    0.461    0.376   -1.462    0.790   -0.469    0.437    1.051   -0.276    1.075   -0.377   -1.275    1.100   -1.672   -2.903   -0.022   -0.420    0.818    2.109    1.635    8.857    0.166    0.048    2.221   -0.008    1.544   -0.361   -0.845    1.943    0.625    0.334   -2.200    0.865    2.090    0.351    1.251    0.602    0.832    2.244    1.303    0.748    0.987    2.030    0.402   -0.109    1.484    1.751    1.984    1.656   -1.206    0.320    1.861    0.010    0.027    0.259   -0.078    1.915    1.551    1.718    1.927   -0.516    1.081    1.167    2.102    1.872   -0.494    3.035    1.283    1.594    1.057   -0.204    0.509    0.791    1.211    0.698    0.184    0.501    1.798    0.273    1.883    1.799    1.788    1.240    0.088    3.641    1.619 
DATE 2015:202:14:35:26 obsn  10 az 314 el 33 freq_MHz  1415.0000 Tsys 165.800 Tant  6.828 vlsr  -27.26 glat -2.092 glon 111.560 source CasA 
Fstart 1413.997 fstop 1416.003 spacing 0.009375 bw    2.400 fbw    2.000 MHz nfreq 256 nsam 1048576 npoint 214 integ    20 sigma    0.772 bsw 11
Spectrum 
   1.901    0.793    1.803    1.458    1.954    1.585    3.536    1.235    0.973    2.687    0.910    0.939    2.195    2.417    1.964    1.586    0.541    2.897    2.227    0.636    2.776    1.123    2.170    2.925    0.535    2.811    2.548    2.366    2.144    1.424    3.100    2.411    1.306    2.538    0.191    0.249   -0.389   -0.308    1.755    1.259    2.799    1.484    0.977    8.635    3.070    1.204    0.233    2.987    1.330    0.580    0.951    2.932    2.279    1.490    1.449    0.791    2.011    0.674    2.043    1.023    2.240   -0.131    2.338    0.217    1.244    0.550    2.143    0.072    1.437    0.506    0.350    1.221    0.910    0.894    0.814    0.067    2.179    0.961    3.032    1.569   -1.440    1.041    1.847    1.809    0.371    0.354    0.989    1.891    0.932    0.449    0.732    0.651    1.429    1.445    2.607   -0.388    1.055    0.601   -0.683    1.150    0.571   -0.015    0.647    0.095    0.708    0.891   -0.506    0.876    0.320    0.872    1.585    0.813    1.866   -1.165    0.917    1.118    2.582    0.623   -0.457    1.963    0.568   -1.237    2.466    0.693    1.342    1.922   -0.684    1.315    2.097    0.390    1.175   -1.135    1.154    0.023    0.927    1.645   -0.083    1.458    0.147   -1.120    1.053   -1.645   -2.486   -0.174    0.217    1.095    2.238    2.126    9.520    0.872    0.730    2.101    0.559    1.283   -0.374   -0.539    1.831    1.021    0.712   -1.515    1.284    1.736    0.624    1.789    1.277    1.175    2.177    2.025    1.275    1.147    2.258    0.748    0.498    1.527    2.094    1.914    2.016   -1.040    0.470    2.234   -0.127    0.513    0.608    0.093    1.981    1.777    1.855    1.833   -0.221    1.560    1.319    2.247    2.176   -0.564    3.138    1.562    2.121    1.598    0.508    1.113    1.004    1.677    1.277    0.396    0.806    1.845    0.460    2.459    2.067    2.328    1.720    1.070    5.457    1.848 
DATE 2015:202:14:35:45 obsn  11 az 321 el 33 freq_MHz  1415.0000 Tsys 165.800 Tant  6.379 vlsr  -27.26 glat -2.092 glon 111.560 source CasA 
Fstart 1413.997 fstop 1416.003 spacing 0.009375 bw    2.400 fbw    2.000 MHz nfreq 256 nsam 1048576 npoint 214 integ    22 sigma    0.733 bsw 12
Spectrum 
 177.208  175.007  174.917  174.382  174.485  175.093  174.427  174.622  174.402  173.411  173.327  173.615  173.378  172.723  172.856  172.691  173.156  173.240  173.104  174.758  173.291  174.415  172.863  172.989  174.375  173.250  173.612  174.303  174.797  175.018  177.765  173.479  174.208  174.623  175.447  174.463  175.615  173.941  174.280  175.212  175.216  173.768  174.681  180.252  173.919  173.698  174.419  174.366  173.270  174.005  173.030  173.678  172.740  173.345  173.520  173.164  173.214  173.574  172.599  173.936  173.281  173.583  173.643  173.540  173.181  173.005  172.628  172.492  173.556  172.505  173.908  172.920  173.612  173.171  173.052  174.229  173.185  173.190  173.526  173.015  174.240  172.231  171.915  172.830  172.352  172.930  172.761  172.686  171.989  171.515  172.582  172.416  173.111  172.054  171.378  173.557  171.665  172.080  172.718  172.225  172.372  172.650  172.773  172.120  172.005  172.552  173.517  172.021  171.766  172.110  172.030  172.868  172.912  172.860  172.395  172.918  171.455  173.174  174.225  172.036  172.366  173.171  172.468  173.232  173.540  172.757  172.915  171.933  173.552  171.438  172.456  174.165  173.801  172.735  172.554  172.552  174.468  174.174  172.186  172.752  172.769  173.927  174.148  173.222  172.882  171.981  172.641  174.521  178.679  172.476  173.054  172.151  172.413  173.600  172.284  173.684  173.060  173.447  172.792  174.435  172.385  172.897  173.939  173.351  173.044  173.214  173.500  173.362  173.446  173.320  173.642  173.579  174.028  174.807  172.833  173.701  174.358  174.811  172.890  173.871  174.418  172.840  174.063  174.247  173.834  172.760  173.617  171.927  173.223  172.217  173.708  172.951  173.495  172.612  172.944  173.408  173.096  172.878  173.265  173.392  174.018  173.550  173.602  175.452  174.577  174.949  174.040  173.407  173.259  172.736  171.357  171.569  211.369  175.360 
DATE 2015:202:14:35:58 obsn  12 az 321 el 33 freq_MHz  1415.0000 Tsys 165.800 Tant  9.655 vlsr  -27.26 glat -2.092 glon 111.560 source CasA 
Fstart 1413.997 fstop 1416.003 spacing 0.009375 bw    2.400 fbw    2.000 MHz nfreq 256 nsam 1048576 npoint 214 integ    24 sigma    0.699 bsw 12
Spectrum 
   1.913    1.144    2.165    1.584    2.309    1.614    2.204    1.706    1.460    3.068    1.388    1.131    2.031    1.810    2.134    1.907    0.986    2.981    2.182    1.005    2.631    1.190    1.982    2.770    1.172    2.875    2.598    2.346    2.551    0.901    2.861    2.512    2.167    2.670   -0.103    0.707   -0.263    0.354    1.741    1.101    3.212    1.805    1.464    8.632    2.539    1.092    0.014    3.108    1.636    0.297    1.104    2.917    1.607    2.028    1.443    1.472    2.299    0.987    2.252    1.020    2.211    0.429    2.398    1.205    1.476    0.823    2.438    0.893    1.788    1.126    0.710    1.470    1.157    1.349    1.275    0.163    2.318    1.465    3.389    2.039   -0.525    1.356    2.004    1.857    1.176    0.586    0.630    2.359    1.660    1.108    1.197    1.585    1.215    2.196    2.264   -0.107    1.552    1.468    0.666    1.522    1.255    0.385    1.016    0.796    0.964    1.599   -0.450    1.745    0.759    0.902    2.106    0.774    2.308   -0.329    1.649    1.463    2.444    1.667   -0.346    2.576    1.083   -0.768    2.935    1.400    1.032    2.089   -0.406    1.849    1.778    0.760    1.703   -0.847    1.649    0.654    1.858    1.898    0.550    1.493    0.912   -0.152    1.405   -1.020   -1.681    0.565    0.232    1.455    2.734    2.469   10.526    1.326    1.692    1.931    1.068    2.071    0.271    0.467    2.280    1.256    0.958   -0.847    1.273    2.277    0.520    2.194    1.975    1.589    1.896    2.492    2.490    1.663    1.963    0.900    1.505    2.005    2.653    2.319    2.632   -0.596    0.525    2.629    0.448    1.540    1.190    0.408    2.246    2.065    2.631    2.856    0.681    2.581    1.667    3.162    2.318    0.153    3.011    1.959    2.600    1.976    0.968    1.646    1.200    2.167    1.862    0.793    1.123    2.113    0.635    2.793    2.285    2.753    1.974    1.831    8.635    2.274 
DATE 2015:202:14:36:17 obsn  13 az 328 el 33 freq_MHz  1415.0000 Tsys 165.800 Tant 10.290 vlsr  -27.26 glat -2.092 glon 111.560 source CasA 
Fstart 1413.997 fstop 1416.003 spacing 0.009375 bw    2.400 fbw    2.000 MHz nfreq 256 nsam 1048576 npoint 214 integ    26 sigma    0.669 bsw 13
Spectrum 
   1.549    0.880    2.225    1.188    1.762    1.568    2.330    1.301    0.839    2.847    1.364    1.005    1.759    1.704    1.954    1.624    0.748    2.502    2.103    0.851    2.283    0.650    1.702    2.309    0.781    2.552    2.286    1.876    1.973    0.288    2.345    2.002    1.806    2.035   -0.429    0.027   -0.652   -0.063    1.209    0.636    2.827    1.620    1.664    8.255    1.893    0.526   -0.352    2.784    1.240   -0.729    0.851    2.327    1.087    1.649    0.811    0.932    2.029    0.205    1.731    0.786    1.446    0.125    1.846    0.889    1.034    0.553    1.986    0.140    1.527    0.813    0.172    1.037    0.971    0.648    0.910   -0.840    1.991    0.870    2.906    1.552   -1.268    0.881    1.540    1.169    0.704    0.277    0.260    1.934    0.667    0.747    0.830    1.000    0.894    1.813    1.793   -0.937    0.862    0.847    0.170    0.880    0.537   -0.182    0.662    0.015    0.254    1.072   -1.187    0.987    0.190    0.063    1.652    0.004    1.888   -0.877    0.801    0.904    1.418    1.080   -1.374    1.880    0.319   -1.467    2.240    0.948    0.468    1.568   -1.241    1.062    1.349    0.037    1.212   -1.710    1.382   -0.005    0.869    1.189   -0.100    0.933    0.642   -0.737    0.698   -1.834   -2.405    0.210   -0.062    0.686    2.177    2.075   10.372    0.861    1.369    1.633    0.806    1.590   -0.461   -0.192    1.640    0.820    0.534   -1.498    0.478    1.538   -0.365    1.332    1.332    0.990    1.454    1.890    1.525    1.107    1.716    0.453    0.900    1.434    1.899    1.204    2.047   -1.318   -0.174    2.047   -0.792    1.042    0.854    0.246    1.673    1.289    2.221    2.079    0.614    1.684    1.156    2.990    1.764   -0.368    2.684    1.671    2.068    1.067    0.211    1.542    0.487    1.445    1.626    0.375    0.846    1.771   -0.133    2.195    1.933    2.481    1.781    1.348    3.973    1.384 
DATE 2015:202:14:36:34 obsn  14 az 321 el 33 freq_MHz  1415.0000 Tsys 165.800 Tant 10.180 vlsr  -27.26 glat -2.092 glon 111.560 source CasA 
Fstart 1413.997 fstop 1416.003 spacing 0.009375 bw    2.400 fbw    2.000 MHz nfreq 256 nsam 1048576 npoint 214 integ    28 sigma    0.643 bsw 14
Spectrum 
   1.632    1.097    2.241    1.046    1.957    1.779    2.146    1.518    1.124    3.167    1.488    0.967    1.865    1.787    1.961    1.668    0.835    2.623    2.428    1.481    2.243    0.385    1.785    2.061    0.692    2.807    2.184    1.966    1.979    0.581    2.426    2.300    1.719    2.106   -0.353   -0.129   -0.537    0.207    1.475    0.685    2.818    1.675    2.017    8.456    1.816    1.012   -0.138    3.088    1.513   -0.161    1.004    2.565    1.314    1.779    1.299    1.009    2.272    0.083    1.905    0.933    1.476    0.249    1.906    1.112    1.228    0.843    2.099    0.356    1.554    1.087    0.098    1.095    1.111    0.795    1.312   -1.073    1.706    1.228    3.137    1.679   -1.236    1.011    1.366    1.234    0.508    0.552    0.732    2.014    0.475    0.797    0.656    0.958    1.269    1.727    1.838   -1.087    0.920    1.242    0.333    1.166    0.800   -0.170    0.505    0.392    0.206    0.913   -0.932    1.083    0.341   -0.063    1.561   -0.026    1.736   -0.959    1.233    0.976    1.491    1.021   -1.337    2.104    0.548   -1.346    1.929    1.247    0.613    1.854   -1.100    1.195    1.404    0.359    0.886   -1.865    1.616   -0.137    0.867    1.379   -0.210    1.025    0.761   -0.507    0.794   -1.702   -2.281    0.216   -0.034    0.773    2.141    2.144   10.297    0.906    0.949    1.801    1.034    1.741    0.102    0.179    1.468    1.073    0.726   -1.494    0.656    1.268   -0.142    1.381    1.341    1.151    1.699    1.863    1.654    1.352    1.808    0.962    0.792    1.850    1.799    0.689    2.028   -1.063   -0.016    2.259   -0.808    0.965    1.105    0.530    1.624    1.235    1.923    1.809    0.862    1.756    1.136    3.069    1.619    0.257    3.099    1.632    2.098    1.513    0.358    1.640    0.437    1.699    1.820    0.572    1.214    1.816   -0.101    2.023    1.858    2.764    2.081    1.225    3.530    1.763 
DATE 2015:202:14:36:53 obsn  15 az 314 el 33 freq_MHz  1415.0000 Tsys 165.800 Tant  6.528 vlsr  -27.26 glat -2.092 glon 111.560 source CasA 
Fstart 1413.997 fstop 1416.003 spacing 0.009375 bw    2.400 fbw    2.000 MHz nfreq 256 nsam 1048576 npoint 214 integ    31 sigma    0.619 bsw 15
Spectrum 
   1.570    1.240    2.046    1.011    1.762    1.872    2.185    1.407    1.368    3.072    1.460    1.171    1.946    1.631    1.913    1.443    0.616    2.487    2.265    1.334    2.235    0.509    1.804    1.850    1.176    2.694    2.207    1.862    1.889    0.875    2.282    2.062    1.658    2.165   -0.010    0.171   -0.472    0.494    1.734    0.681    2.730    1.721    2.155    8.518    1.891    0.862   -0.143    3.680    1.440   -0.142    1.246    2.249    1.312    2.050    1.541    0.860    2.129   -0.001    1.825    1.264    1.734    0.290    1.949    1.346    1.077    1.244    2.312    0.991    1.810    1.507    0.227    0.994    0.977    0.949    1.467   -0.764    1.820    1.575    3.138    1.799   -0.759    1.432    1.672    1.420    0.694    0.971    1.146    2.321    0.878    0.874    0.989    0.905    1.442    1.884    1.971   -0.688    1.012    1.312    0.489    1.411    0.908   -0.042    0.819    0.663    0.374    1.014   -0.870    1.260    0.379    0.291    1.660    0.415    1.798   -0.460    1.285    1.173    1.554    1.210   -0.857    2.151    0.891   -0.944    2.062    1.212    0.651    2.220   -0.925    1.007    1.382    0.625    0.835   -1.750    1.712    0.098    0.984    1.403   -0.447    1.250    0.972    0.241    1.063   -1.340   -1.864    0.080    0.427    1.010    2.198    2.109   10.923    1.187    1.129    1.815    1.035    2.144    0.244    0.506    1.666    1.540    1.202   -1.033    0.666    1.318    0.185    1.553    1.561    1.196    1.811    2.317    1.538    1.483    1.928    1.090    0.994    2.024    2.126    1.085    2.017   -0.686    0.214    2.514   -0.570    1.242    1.639    0.692    1.397    1.198    2.097    2.109    0.821    1.542    1.368    3.045    1.889    0.431    3.102    1.669    2.481    1.858    0.846    1.880    0.509    1.685    1.835    0.643    1.440    1.888    0.141    2.044    2.060    2.771    2.171    1.292    6.028    2.285 
DATE 2015:202:14:37:12 obsn  16 az 321 el 33 freq_MHz  1415.0000 Tsys 165.800 Tant 10.104 vlsr  -27.26 glat -2.092 glon 111.560 source CasA 
Fstart 1413.997 fstop 1416.003 spacing 0.009375 bw    2.400 fbw    2.000 MHz nfreq 256 nsam 1048576 npoint 214 integ    33 sigma    0.598 bsw 16
Spectrum 
   1.899    1.338    2.059    0.892    1.278    2.138    2.289    1.332    1.829    3.081    1.728    1.220    2.032    1.560    2.282    1.306    0.348    2.095    2.108    1.255    2.034    0.664    1.818    1.835    0.973    2.482    2.198    1.865    1.882    0.868    2.115    2.163    1.567    2.228   -0.088    0.314   -0.420    0.714    1.853    0.934    2.806    1.985    2.123    8.826    1.654    0.913    0.086    3.810    1.455    0.220    1.354    2.219    1.590    2.021    1.610    1.050    2.323    0.278    1.981    1.082    1.856    0.335    1.843    1.231    1.265    0.929    2.257    1.193    1.859    1.518    0.029    0.918    0.999    1.161    1.580   -0.295    1.983    1.680    3.380    1.850   -0.525    1.558    1.548    1.667    1.014    0.976    1.598    2.375    0.880    0.958    0.890    1.325    1.655    1.827    2.087   -0.570    1.254    1.425    0.647    1.590    0.883   -0.155    1.022    0.771    0.716    0.986   -0.596    1.388    0.398    0.744    1.577    0.428    2.072   -0.141    1.423    1.248    1.526    1.340   -0.955    1.989    0.928   -0.534    1.924    1.175    0.821    2.191   -1.025    1.195    1.658    0.879    1.093   -1.381    2.174    0.028    1.328    1.478   -0.301    1.324    1.375    0.488    1.156   -1.417   -1.460    0.374    0.940    1.282    2.355    2.099   11.163    1.258    1.165    1.822    1.152    2.231    0.477    0.881    2.458    1.533    1.505   -0.706    0.897    1.602    0.473    1.523    1.724    1.354    1.925    2.581    1.658    1.867    1.991    1.106    1.147    2.273    2.328    1.309    2.447   -0.436    0.636    2.756   -0.448    1.448    1.500    0.878    1.664    1.508    2.279    2.360    0.895    1.595    1.676    3.169    1.953    0.441    2.884    2.013    2.538    2.003    1.037    2.249    0.579    2.036    1.900    0.739    1.421    1.739    0.557    1.981    2.389    2.790    2.393    1.385    6.631    2.554 
DATE 2015:202:14:37:31 obsn  17 az 328 el 33 freq_MHz  1415.0000 Tsys 165.800 Tant 10.403 vlsr  -27.26 glat -2.092 glon 111.560 source CasA 
Fstart 1413.997 fstop 1416.003 spacing 0.009375 bw    2.400 fbw    2.000 MHz nfreq 256 nsam 1048576 npoint 214 integ    35 sigma    0.579 bsw 17
Spectrum 
   1.809    1.606    2.227    0.849    1.249    2.121    2.311    1.390    1.768    3.034    1.643    1.099    1.983    1.495    2.204    1.239    0.304    2.077    2.047    1.010    2.075    0.682    1.937    1.821    0.988    2.448    2.069    1.778    1.638    0.438    2.068    2.051    1.778    2.203   -0.319    0.126   -0.680    0.386    1.557    0.870    2.878    1.758    1.695    8.451    1.604    0.932   -0.089    3.570    1.388   -0.101    1.178    1.890    1.624    2.183    1.370    1.118    2.422   -0.173    2.092    0.887    1.688    0.380    1.902    0.925    1.069    1.194    2.064    1.062    1.712    1.324   -0.380    1.099    0.967    1.489    1.435   -0.650    2.050    1.355    3.051    1.662   -0.821    1.662    1.549    1.396    1.274    0.764    1.506    2.200    0.565    0.819    0.781    1.077    1.339    1.501    2.158   -0.548    1.125    1.262    0.620    1.464    0.674   -0.361    0.916    0.811    0.639    0.912   -0.959    1.175    0.052    0.670    1.396    0.547    1.799   -0.063    1.380    1.112    1.311    1.348   -1.387    1.558    0.606   -0.798    1.715    1.155    0.775    1.963   -1.333    0.823    1.431    0.694    0.993   -1.601    2.226   -0.132    1.227    1.454   -0.478    1.385    1.163    0.057    0.862   -1.733   -1.790    0.378    0.850    1.224    2.198    2.080   11.308    1.098    1.090    1.738    1.147    2.054    0.362    0.712    2.245    1.508    1.665   -0.764    0.754    1.498    0.257    1.569    1.809    1.356    1.841    2.243    1.739    1.902    1.962    1.364    1.223    2.150    2.169    1.017    2.373   -0.819    0.744    2.489   -0.644    1.485    1.547    0.858    1.704    1.416    2.196    2.153    0.660    1.509    1.625    3.206    1.913    0.102    2.661    1.806    2.343    2.045    0.908    2.000    0.346    1.722    1.943    0.225    1.450    1.517    0.491    1.890    2.478    2.548    2.220    1.009    4.593    2.159 
DATE 2015:202:14:37:52 obsn  18 az 321 el 33 freq_MHz  1415.0000 Tsys 165.800 Tant 10.114 vlsr  -27.26 glat -2.092 glon 111.560 source CasA 
Fstart 1413.997 fstop 1416.003 spacing 0.009375 bw    2.400 fbw    2.000 MHz nfreq 256 nsam 1048576 npoint 214 integ    37 sigma    0.562 bsw 18
Spectrum 
   2.040    1.663    2.387    1.258    1.492    2.156    2.443    1.248    1.734    3.072    1.696    1.186    2.089    1.455    2.287    1.398    0.472    1.948    2.032    0.890    2.132    0.598    2.025    1.971    1.094    2.450    2.250    1.491    1.643    0.255    2.095    2.182    1.561    2.107   -0.182    0.194   -0.754    0.231    1.668    0.684    2.955    1.715    1.822    8.645    1.587    1.123    0.263    3.485    1.274   -0.108    1.210    1.635    1.639    1.963    1.260    1.131    2.408   -0.202    2.089    1.081    1.665    0.284    2.008    0.804    0.972    1.144    1.916    1.050    1.682    1.461   -0.259    1.005    0.630    1.594    1.320   -0.741    2.044    1.298    2.729    1.651   -0.944    1.782    1.519    1.103    1.188    0.527    1.499    1.918    0.628    0.803    0.630    0.968    1.067    1.971    1.811   -0.819    0.987    1.177    0.422    1.364    0.260   -0.418    0.979    0.825    0.610    0.733   -1.020    1.121    0.062    0.566    1.417    0.330    1.618   -0.167    1.381    1.168    1.196    1.154   -1.707    1.166    0.590   -0.604    1.682    1.188    0.656    1.726   -1.535    0.626    1.129    0.785    1.088   -1.873    2.265   -0.137    1.178    1.525   -0.665    1.155    1.102   -0.302    0.852   -1.948   -2.197    0.377    0.799    1.128    2.143    1.956   11.288    0.981    1.016    1.478    1.174    2.033    0.396    0.555    2.126    1.493    1.340   -0.741    0.621    1.368    0.324    1.504    1.561    1.085    1.877    2.064    1.791    1.699    1.647    1.400    0.971    1.925    2.061    1.083    2.000   -1.197    0.568    2.066   -0.865    1.439    1.305    0.773    1.522    0.996    2.075    1.759    0.400    1.267    1.359    2.936    1.565   -0.207    2.375    1.712    2.149    1.980    0.731    1.724    0.244    1.815    1.947   -0.002    1.459    1.387    0.218    1.726    2.406    2.390    2.030    0.835    3.818    1.963 
DATE 2015:202:14:38:11 obsn  19 az 314 el 33 freq_MHz  1415.0000 Tsys 165.800 Tant  7.153 vlsr  -27.26 glat -2.092 glon 111.560 source CasA 
Fstart 1413.997 fstop 1416.003 spacing 0.009375 bw    2.400 fbw    2.000 MHz nfreq 256 nsam 1048576 npoint 214 integ    39 sigma    0.546 bsw 19
Spectrum 
   2.051    1.877    2.451    1.302    1.623    2.497    2.360    1.320    1.489    3.191    1.684    1.132    2.253    1.705    2.391    1.538    0.526    2.109    2.103    0.973    2.048    0.667    2.118    2.060    1.139    2.707    2.260    1.642    1.614    0.285    2.112    1.889    1.551    2.204   -0.222    0.475   -0.731    0.518    1.948    0.653    3.101    1.712    2.090    8.809    1.621    1.339    0.347    3.579    1.436    0.030    1.238    1.578    1.828    2.140    1.180    1.215    2.382   -0.029    2.191    1.171    1.631    0.191    2.328    1.215    1.174    1.115    1.895    0.958    1.483    1.670    0.108    1.231    0.986    1.621    1.156   -0.886    2.316    1.434    2.779    1.779   -1.050    1.793    1.514    1.192    1.578    0.740    1.558    1.861    0.810    0.949    0.830    0.987    1.116    2.144    1.743   -0.932    1.228    1.392    0.726    1.511    0.354   -0.359    1.023    0.999    0.863    0.826   -0.867    1.227    0.237    0.683    1.605    0.223    1.639    0.017    1.342    1.494    1.412    0.999   -1.453    1.319    0.601   -0.249    1.894    1.252    0.539    1.882   -1.264    0.759    0.839    0.823    1.220   -1.708    2.295    0.025    1.571    1.805   -0.702    1.317    1.084   -0.386    0.923   -1.747   -2.308    0.412    0.990    1.332    2.231    1.811   11.385    1.063    1.087    1.621    1.376    1.947    0.426    0.591    2.324    1.611    1.327   -0.321    0.703    1.524    0.581    1.563    1.668    1.281    2.150    2.191    1.824    1.879    1.709    1.502    0.786    1.929    2.055    1.230    2.066   -1.198    0.727    2.355   -0.848    1.665    1.466    0.719    1.359    0.901    2.106    1.993    0.369    1.227    1.103    3.015    1.538   -0.100    2.373    1.950    2.494    2.295    0.858    2.017    0.351    1.966    2.042    0.137    1.492    1.680    0.272    1.718    2.232    2.340    1.909    1.099    4.855    1.935 
DATE 2015:202:14:38:30 obsn  20 az 321 el 33 freq_MHz  1415.0000 Tsys 165.800 Tant 10.235 vlsr  -27.26 glat -2.092 glon 111.560 source CasA 
Fstart 1413.997 fstop 1416.003 spacing 0.009375 bw    2.400 fbw    2.000 MHz nfreq 256 nsam 1048576 npoint 214 integ    42 sigma    0.532 bsw 20
Spectrum 
   1.806    1.775    2.553    1.361    1.556    2.471    2.324    1.233    1.509    3.096    1.602    1.206    2.283    1.595    2.365    1.718    0.617    2.167    2.097    1.120    2.046    0.782    2.158    1.826    1.128    2.674    2.092    1.590    1.726    0.424    2.382    1.859    1.772    2.341   -0.000    0.759   -0.559    0.708    2.037    1.011    3.071    1.925    2.013    8.683    1.562    1.617    0.474    3.637    1.387    0.250    1.416    1.688    1.764    1.964    1.477    1.358    2.461    0.369    2.341    1.213    1.620    0.497    2.395    1.314    1.339    1.293    1.911    0.994    1.615    1.541    0.299    1.359    1.209    1.815    1.232   -0.851    2.483    1.427    2.906    1.972   -0.720    1.840    1.539    1.449    1.727    0.955    1.777    1.889    0.925    1.004    0.890    1.211    1.398    2.126    1.627   -0.683    1.530    1.333    0.749    1.640    0.399   -0.310    1.094    1.009    1.126    0.988   -0.786    1.474    0.489    0.951    1.757    0.548    1.589    0.380    1.535    1.639    1.521    1.099   -1.093    1.555    0.824   -0.138    1.963    1.394    0.767    1.962   -1.194    0.895    0.977    0.856    1.385   -1.605    2.469    0.221    1.646    1.826   -0.537    1.416    1.302   -0.349    0.785   -1.603   -1.907    0.582    0.933    1.432    2.202    1.900   11.611    1.166    1.198    1.706    1.530    1.890    0.906    0.819    2.423    1.608    1.543   -0.166    0.866    1.627    0.643    1.635    1.990    1.507    2.240    2.178    1.804    2.138    2.058    1.565    0.996    1.888    2.026    1.532    2.164   -1.133    0.879    2.432   -0.633    1.628    1.800    0.999    1.553    0.975    2.063    1.972    0.389    1.270    1.223    3.027    1.351    0.172    2.506    2.031    2.675    2.366    1.081    2.123    0.574    1.922    2.126    0.223    1.629    1.747    0.456    1.753    2.328    2.705    2.023    0.884    6.363    2.013 
DATE 2015:202:14:38:49 obsn  21 az 329 el 33 freq_MHz  1415.0000 Tsys 165.800 Tant  9.497 vlsr  -27.26 glat -2.092 glon 111.560 source CasA 
Fstart 1413.997 fstop 1416.003 spacing 0.009375 bw    2.400 fbw    2.000 MHz nfreq 256 nsam 1048576 npoint 214 integ    44 sigma    0.518 bsw 21
Spectrum 
   1.935    1.688    2.626    1.450    1.519    2.316    2.302    1.341    1.578    3.153    1.906    1.230    2.476    1.705    2.348    1.752    0.733    2.101    2.008    1.062    2.069    0.992    2.111    1.848    0.942    2.794    2.255    1.628    1.758    0.541    2.435    1.865    1.812    2.242    0.048    0.843   -0.492    0.786    2.246    0.952    3.342    2.061    2.033    8.886    1.622    1.497    0.701    3.787    1.401    0.328    1.568    1.820    1.742    1.916    1.446    1.365    2.326    0.540    2.330    1.323    1.395    0.393    2.462    1.353    1.500    1.401    1.992    1.213    1.735    1.501    0.284    1.435    1.286    1.756    1.399   -0.733    2.544    1.507    2.784    1.932   -0.830    1.927    1.366    1.477    1.761    1.148    2.035    1.761    0.998    1.004    0.981    1.260    1.311    2.034    1.455   -0.689    1.733    1.358    0.695    1.835    0.318    0.055    1.032    1.092    1.245    0.926   -0.947    1.571    0.764    1.049    1.932    0.402    1.299    0.501    1.565    1.852    1.751    0.964   -0.973    1.582    0.871   -0.290    2.020    1.433    0.714    2.179   -1.040    0.819    1.233    1.010    1.512   -1.562    2.651    0.423    1.762    2.070   -0.464    1.518    1.245   -0.280    0.669   -1.520   -1.843    0.620    1.060    1.555    2.231    1.886   12.038    1.277    1.100    1.758    1.661    2.027    1.101    0.983    2.433    1.856    1.269   -0.226    0.660    1.639    0.606    1.548    1.880    1.626    2.198    2.214    1.690    2.138    1.999    1.660    0.960    1.851    1.990    1.368    2.101   -1.007    1.075    2.389   -0.532    1.835    1.782    1.077    1.744    0.919    2.102    2.184    0.371    1.391    1.242    3.063    1.598    0.490    2.578    2.088    2.693    2.282    1.276    1.933    0.556    2.190    2.286    0.065    1.547    1.809    0.720    1.923    2.374    2.633    1.984    0.892    5.890    1.915 
DATE 2015:202:14:39:08 obsn  22 az 321 el 33 freq_MHz  1415.0000 Tsys 165.800 Tant  9.014 vlsr  -27.26 glat -2.092 glon 111.560 source CasA 
Fstart 1413.997 fstop 1416.003 spacing 0.009375 bw    2.400 fbw    2.000 MHz nfreq 256 nsam 1048576 npoint 214 integ    46 sigma    0.506 bsw 22
Spectrum 
 177.507  175.496  175.505  174.872  175.350  175.326  174.477  174.968  175.156  174.168  174.018  173.989  173.470  173.558  173.245  173.271  173.648  173.718  173.344  175.195  173.298  174.691  173.496  173.856  174.770  174.049  173.973  174.935  174.934  175.311  178.336  174.527  174.680  174.897  175.601  174.514  175.913  174.821  174.894  175.295  176.174  174.233  175.598  181.208  174.203  174.274  174.550  175.064  173.949  174.945  173.386  174.132  173.406  173.655  173.969  174.183  173.380  174.326  173.593  174.502  173.882  173.895  174.327  174.186  174.089  173.711  173.603  173.356  173.750  173.425  174.617  173.838  173.955  173.722  173.586  175.432  173.488  173.954  174.263  173.258  174.862  172.874  172.181  173.119  172.919  173.471  173.754  173.315  173.056  172.108  172.663  173.157  173.251  172.650  172.657  174.045  172.763  173.157  173.554  173.195  173.446  173.470  173.089  172.873  173.143  173.031  174.180  173.307  172.680  172.895  172.781  173.712  173.518  173.535  173.647  173.641  172.718  174.009  174.943  172.947  173.252  174.228  173.351  173.546  173.979  173.804  173.961  173.367  174.051  172.868  173.229  175.306  175.011  173.209  173.995  173.665  175.190  174.812  172.841  173.590  173.292  175.055  175.142  174.123  173.433  172.942  173.856  174.863  179.904  173.307  173.319  173.001  173.447  174.133  173.328  174.630  173.575  174.463  173.685  175.315  173.062  173.675  174.585  174.218  174.088  174.012  174.376  174.256  174.708  174.224  174.347  174.464  174.924  175.536  174.046  174.916  175.663  176.042  174.190  175.004  175.838  174.028  174.843  175.323  174.578  174.109  174.424  173.616  173.878  173.185  174.181  173.804  174.096  173.936  173.596  174.224  173.913  173.981  174.094  174.079  175.164  174.588  174.795  176.427  175.302  176.075  175.297  174.482  174.128  173.515  172.231  172.423  212.822  176.365 
DATE 2015:202:14:39:21 obsn  23 az 321 el 33 freq_MHz  1415.0000 Tsys 165.800 Tant 10.012 vlsr  -27.26 glat -2.092 glon 111.560 source CasA 
Fstart 1413.997 fstop 1416.003 spacing 0.009375 bw    2.400 fbw    2.000 MHz nfreq 256 nsam 1048576 npoint 214 integ    48 sigma    0.494 bsw 22
Spectrum 
   1.991    2.053    2.489    1.639    1.679    2.382    2.637    1.483    1.720    3.146    1.955    1.594    2.680    1.834    2.439    1.929    0.665    2.427    2.110    1.018    2.417    1.129    2.281    1.998    1.043    2.938    2.435    1.653    1.885    0.599    2.776    1.956    2.103    2.534   -0.157    0.940   -0.321    0.792    2.316    1.095    3.648    2.059    2.126    9.011    1.420    1.868    0.816    3.825    1.972    0.344    1.474    1.920    1.863    1.853    1.488    1.303    2.382    0.526    1.975    1.416    1.361    0.599    2.253    1.276    1.563    1.380    1.725    1.161    1.823    1.332    0.201    1.334    1.506    1.629    1.771   -1.356    2.179    1.353    2.533    1.794   -0.981    1.890    1.517    1.507    1.815    1.248    1.989    2.034    0.595    0.948    1.151    1.275    1.160    1.988    1.555   -0.631    1.916    1.423    0.592    1.813    0.084   -0.083    1.211    0.932    1.106    1.194   -0.899    1.728    0.937    1.388    2.005   -0.050    1.299    0.265    1.433    1.821    1.636    0.824   -1.251    1.475    0.884   -0.450    2.024    1.348    0.534    2.090   -1.052    0.824    0.963    1.091    1.342   -1.748    2.746    0.344    1.932    1.782   -0.639    1.677    1.042   -0.160    1.017   -1.814   -2.027    0.743    0.912    1.493    2.016    1.911   11.846    0.987    1.141    1.723    1.493    2.007    0.974    0.760    2.292    1.506    1.326   -0.534    0.605    1.441    0.405    1.183    1.922    1.732    2.272    2.427    1.634    2.026    1.702    1.623    0.624    1.881    1.806    1.445    1.900   -1.469    0.877    2.162   -0.620    1.577    1.552    0.638    1.764    0.916    2.138    1.682    0.261    1.898    1.082    3.017    1.440    0.492    2.181    1.930    2.914    1.837    1.098    1.725    0.745    2.111    2.251   -0.302    1.510    1.489    0.717    1.899    2.338    2.513    2.340    0.828    5.360    1.392 
DATE 2015:202:14:39:40 obsn  24 az 314 el 33 freq_MHz  1415.0000 Tsys 165.800 Tant  6.299 vlsr  -27.26 glat -2.092 glon 111.560 source CasA 
Fstart 1413.997 fstop 1416.003 spacing 0.009375 bw    2.400 fbw    2.000 MHz nfreq 256 nsam 1048576 npoint 214 integ    50 sigma    0.483 bsw 23
Spectrum 
   2.110    2.165    2.503    1.583    1.605    2.358    2.610    1.598    1.712    3.033    2.020    1.709    2.827    2.064    2.511    2.099    0.691    2.438    2.222    1.154    2.348    1.196    2.416    1.929    1.155    2.985    2.669    1.708    1.800    0.739    2.950    2.034    2.232    2.485    0.151    1.155   -0.083    0.906    2.440    1.181    3.653    2.180    2.199    8.897    1.758    1.942    0.923    3.925    1.926    0.557    1.661    2.255    1.808    1.978    1.755    1.383    2.465    0.442    1.984    1.397    1.286    0.647    2.351    1.609    1.814    1.564    1.992    1.108    1.981    1.450    0.486    1.342    1.810    1.844    1.816   -1.128    2.376    1.574    2.539    1.794   -0.863    1.989    1.626    1.743    1.903    1.302    2.106    2.235    0.779    1.103    1.433    1.287    1.250    2.147    1.529   -0.422    2.151    1.592    0.734    1.934    0.312   -0.015    1.432    1.256    1.201    1.371   -0.551    1.859    0.942    1.581    2.090    0.140    1.407    0.532    1.607    2.139    1.677    1.084   -1.073    1.663    1.027   -0.228    2.240    1.647    0.775    2.159   -0.866    1.001    1.126    1.294    1.682   -1.447    2.849    0.540    2.034    1.819   -0.279    1.896    1.391    0.231    1.205   -1.574   -1.804    1.000    1.100    1.525    2.218    2.101   12.161    1.134    1.362    1.947    1.634    2.256    1.292    1.119    2.327    1.445    1.484   -0.105    0.766    1.667    0.647    1.378    2.140    1.833    2.365    2.512    1.703    2.114    1.851    1.895    0.816    1.991    1.869    1.553    2.160   -1.202    1.020    2.358   -0.387    1.561    1.815    0.913    2.096    0.949    2.313    1.609    0.428    2.015    1.350    3.034    1.433    0.742    2.385    2.083    2.932    1.804    1.285    1.961    1.018    2.255    2.467   -0.064    1.579    1.579    0.721    1.776    2.340    2.571    2.528    1.107    7.156    1.580 
DATE 2015:202:14:39:59 obsn  25 az 321 el 33 freq_MHz  1415.0000 Tsys 165.800 Tant 10.476 vlsr  -27.26 glat -2.092 glon 111.560 source CasA 
Fstart 1413.997 fstop 1416.003 spacing 0.009375 bw    2.400 fbw    2.000 MHz nfreq 256 nsam 1048576 npoint 214 integ    52 sigma    0.473 bsw 24
Spectrum 
   2.143    2.322    2.546    1.783    1.753    2.408    2.681    1.851    1.807    3.076    1.978    1.799    2.642    1.969    2.552    2.104    0.844    2.647    2.301    1.261    2.529    1.146    2.406    1.773    1.332    3.169    2.591    1.863    1.835    0.749    2.891    1.938    2.206    2.660    0.411    1.169    0.074    1.017    2.644    1.263    3.671    2.275    2.314    9.103    1.792    1.945    1.050    3.765    1.824    0.565    1.642    2.168    1.895    2.025    1.908    1.442    2.507    0.381    2.046    1.491    1.424    0.662    2.185    1.560    1.706    1.652    2.076    1.246    1.999    1.479    0.557    1.418    1.838    1.916    1.799   -0.866    2.385    1.537    2.526    1.761   -0.686    2.081    1.754    1.762    1.828    1.300    1.935    2.262    0.840    1.286    1.616    1.374    1.233    2.222    1.474   -0.413    2.273    1.644    0.704    1.922    0.327   -0.009    1.538    1.209    1.274    1.406   -0.366    1.889    1.106    1.701    2.103    0.079    1.389    0.696    1.804    2.298    1.760    1.350   -0.988    1.719    1.044   -0.101    2.283    1.788    1.005    2.389   -0.659    0.983    0.998    1.300    1.841   -1.497    2.769    0.480    2.044    1.793   -0.204    2.000    1.562    0.194    1.260   -1.500   -1.701    0.882    1.435    1.684    2.329    2.239   12.269    1.264    1.382    1.918    1.614    2.307    1.153    1.226    2.440    1.556    1.466   -0.069    0.984    1.755    0.932    1.441    2.268    1.918    2.375    2.526    1.797    2.010    2.019    1.958    0.902    2.075    1.932    1.633    2.398   -1.046    1.209    2.418   -0.329    1.647    2.009    1.200    2.265    1.066    2.234    1.938    0.661    1.931    1.485    3.108    1.703    0.783    2.438    2.103    3.048    1.802    1.291    2.034    0.959    2.412    2.603   -0.136    1.552    1.555    0.895    1.868    2.488    2.767    2.874    1.292    7.140    1.655 
DATE 2015:202:14:40:18 obsn  26 az 329 el 33 freq_MHz  1415.0000 Tsys 165.800 Tant  9.701 vlsr  -27.26 glat -2.092 glon 111.560 source CasA 
Fstart 1413.997 fstop 1416.003 spacing 0.009375 bw    2.400 fbw    2.000 MHz nfreq 256 nsam 1048576 npoint 214 integ    55 sigma    0.463 bsw 25
Spectrum 
   2.171    2.316    2.704    1.865    1.838    2.554    2.795    1.863    1.839    3.124    1.979    1.752    2.795    2.054    2.644    2.078    0.695    2.636    2.382    1.275    2.660    1.190    2.382    1.713    1.246    3.152    2.597    1.831    1.857    0.663    3.118    1.951    2.384    2.640    0.213    1.207    0.055    1.063    2.552    1.183    3.596    2.191    2.197    9.270    1.583    1.955    1.091    3.760    1.799    0.631    1.565    2.091    1.711    1.895    1.819    1.515    2.333    0.274    1.880    1.436    1.267    0.396    2.100    1.675    1.705    1.535    1.893    1.071    2.066    1.329    0.440    1.501    1.835    1.765    1.790   -1.086    2.231    1.497    2.568    1.749   -0.857    2.096    1.572    1.820    1.656    1.395    1.943    2.080    0.765    1.129    1.400    1.291    1.124    2.083    1.287   -0.524    2.311    1.646    0.803    1.888    0.420   -0.184    1.297    1.009    1.105    1.457   -0.774    1.822    0.897    1.560    1.999   -0.143    1.197    0.527    1.653    2.287    1.819    1.242   -1.210    1.570    1.039   -0.429    2.212    1.516    0.778    2.274   -0.771    0.897    0.780    1.139    1.583   -1.554    2.719    0.362    1.919    1.765   -0.231    1.940    1.348    0.092    1.138   -1.781   -1.968    0.754    1.159    1.500    2.252    2.190   11.865    1.110    1.266    1.823    1.362    2.311    0.918    0.887    2.221    1.250    1.322   -0.095    0.901    1.605    0.615    1.358    2.041    1.773    2.100    2.400    1.745    1.970    1.788    1.787    0.645    2.094    1.921    1.454    2.297   -1.385    1.042    2.195   -0.521    1.498    1.759    1.105    2.125    0.902    2.110    1.754    0.430    1.840    1.498    3.027    1.413    0.784    2.323    1.949    2.946    1.491    1.012    1.819    0.842    2.146    2.618   -0.365    1.389    1.398    0.912    1.753    2.235    2.436    2.590    1.064    6.236    1.274 
DATE 2015:202:14:40:35 obsn  27 az 322 el 33 freq_MHz  1415.0000 Tsys 165.800 Tant 10.903 vlsr  -27.26 glat -2.092 glon 111.560 source CasA 
Fstart 1413.997 fstop 1416.003 spacing 0.009375 bw    2.400 fbw    2.000 MHz nfreq 256 nsam 1048576 npoint 214 integ    57 sigma    0.454 bsw 26
Spectrum 
   2.199    2.468    2.797    1.959    1.925    2.510    2.802    1.922    1.920    3.162    2.188    1.878    2.832    2.202    2.490    2.103    0.624    2.516    2.579    1.423    2.715    1.292    2.424    1.829    1.145    3.141    2.749    1.881    2.045    0.884    3.080    2.002    2.467    2.661    0.297    1.255    0.187    1.140    2.578    1.189    3.602    2.208    2.367    9.379    1.743    2.026    1.238    3.703    2.034    0.757    1.613    2.119    1.873    1.857    1.917    1.667    2.331    0.103    1.783    1.577    1.349    0.714    2.066    1.576    1.852    1.581    1.965    1.009    2.097    1.451    0.557    1.482    1.746    1.922    1.853   -1.159    2.094    1.508    2.725    1.671   -0.912    2.084    1.692    1.737    1.741    1.246    1.942    2.005    0.657    0.940    1.294    1.191    1.165    2.127    1.258   -0.592    2.114    1.584    0.936    2.031    0.533   -0.170    1.271    0.961    1.032    1.365   -1.085    1.929    0.705    1.396    1.978   -0.311    1.117    0.601    1.809    2.215    1.969    1.150   -1.415    1.569    1.027   -0.492    2.167    1.529    0.875    2.390   -0.758    0.906    0.813    1.148    1.619   -1.624    2.578    0.329    2.001    1.823   -0.244    1.965    1.230    0.057    1.045   -1.977   -2.266    0.792    1.085    1.384    2.169    2.252   11.208    0.989    1.224    1.788    1.310    2.155    0.841    0.642    2.115    1.287    1.203   -0.151    0.863    1.534    0.741    1.250    1.867    1.659    1.894    2.223    1.708    2.093    1.686    1.690    0.573    2.226    1.758    1.441    2.281   -1.637    1.007    1.992   -0.620    1.560    1.572    0.898    1.967    0.988    1.990    1.624    0.509    1.901    1.453    2.848    1.426    0.799    2.436    1.901    3.015    1.584    0.997    1.784    0.831    2.080    2.429   -0.422    1.258    1.327    0.825    1.712    2.190    2.287    2.552    0.899    6.586    1.189 
DATE 2015:202:14:40:54 obsn  28 az 314 el 33 freq_MHz  1415.0000 Tsys 165.800 Tant  5.750 vlsr  -27.26 glat -2.092 glon 111.560 source CasA 
Fstart 1413.997 fstop 1416.003 spacing 0.009375 bw    2.400 fbw    2.000 MHz nfreq 256 nsam 1048576 npoint 214 integ    59 sigma    0.446 bsw 27
Spectrum 
   2.224    2.615    2.916    2.084    2.015    2.572    2.826    2.022    1.978    3.157    2.258    1.885    2.854    2.250    2.569    2.292    0.761    2.467    2.715    1.492    2.707    1.380    2.414    1.966    1.358    3.358    2.727    1.855    2.101    1.037    3.289    2.046    2.541    2.643    0.427    1.421    0.279    1.368    2.653    1.118    3.463    2.368    2.498    9.485    1.865    2.110    1.400    3.745    1.993    0.942    1.636    2.321    2.092    1.764    2.067    1.745    2.338    0.174    1.971    1.751    1.534    0.767    2.000    1.648    1.813    1.640    2.138    1.120    2.160    1.616    0.666    1.539    1.808    1.857    1.937   -1.033    2.111    1.630    2.802    1.733   -0.889    2.255    1.767    1.833    1.950    1.339    1.940    2.113    0.728    1.023    1.461    1.399    1.314    2.187    1.296   -0.545    2.192    1.738    0.925    2.063    0.583   -0.116    1.294    1.019    1.223    1.661   -0.855    2.183    1.040    1.504    2.055   -0.239    1.251    0.773    1.870    2.221    2.020    1.196   -1.339    1.794    1.146   -0.461    2.196    1.662    0.899    2.406   -0.428    0.991    0.932    1.126    1.685   -1.515    2.699    0.541    1.925    2.040   -0.070    2.277    1.370    0.039    1.160   -1.669   -2.022    0.854    1.123    1.528    2.327    2.227   11.164    1.198    1.415    1.973    1.391    2.270    0.962    0.684    2.165    1.416    1.441   -0.122    0.972    1.735    0.935    1.423    1.846    1.866    2.004    2.295    1.626    2.232    1.831    1.662    0.638    2.257    1.959    1.639    2.468   -1.553    1.204    2.019   -0.393    1.664    1.679    1.012    2.066    1.062    2.138    1.777    0.473    1.975    1.483    2.932    1.577    1.036    2.467    1.957    3.124    1.820    1.015    1.701    0.955    1.998    2.592   -0.275    1.350    1.376    0.868    1.843    2.148    2.314    2.582    0.914    7.789    1.226 
DATE 2015:202:14:41:13 obsn  29 az 322 el 33 freq_MHz  1415.0000 Tsys 165.800 Tant 10.611 vlsr  -27.26 glat -2.092 glon 111.560 source CasA 
Fstart 1413.997 fstop 1416.003 spacing 0.009375 bw    2.400 fbw    2.000 MHz nfreq 256 nsam 1048576 npoint 214 integ    61 sigma    0.438 bsw 28
Spectrum 
   2.225    2.667    2.978    2.121    2.018    2.528    2.857    1.962    1.976    3.052    2.214    1.900    3.008    2.246    2.693    2.481    0.778    2.481    2.733    1.625    2.723    1.366    2.387    2.053    1.546    3.244    2.775    2.038    2.242    1.204    3.414    2.175    2.517    2.628    0.416    1.603    0.503    1.552    2.688    1.240    3.501    2.304    2.505    9.675    1.962    2.122    1.498    3.769    2.000    0.990    1.801    2.540    2.114    1.747    2.020    1.725    2.337    0.423    2.089    1.830    1.542    0.856    2.097    1.825    1.852    1.724    2.143    1.131    2.398    1.706    0.820    1.571    1.888    1.906    1.958   -0.819    2.216    1.743    2.837    1.772   -0.740    2.372    1.833    1.926    2.066    1.392    2.050    2.165    0.870    1.102    1.633    1.467    1.504    2.307    1.602   -0.466    2.288    1.910    1.218    2.210    0.694   -0.171    1.255    0.917    1.359    1.640   -0.835    2.257    1.047    1.436    2.289   -0.093    1.400    0.787    1.945    2.278    2.151    1.540   -0.997    1.840    1.339   -0.291    2.267    1.734    0.849    2.420   -0.343    1.126    1.078    1.357    1.814   -1.441    2.754    0.580    2.136    2.223    0.036    2.283    1.502    0.190    1.137   -1.621   -1.825    0.799    1.293    1.583    2.321    2.346   11.208    1.310    1.481    2.029    1.479    2.466    1.020    0.786    2.242    1.518    1.531   -0.001    1.164    1.950    1.001    1.687    1.962    1.800    2.074    2.314    1.843    2.184    1.929    1.674    0.751    2.361    1.882    1.683    2.512   -1.233    1.279    2.062   -0.316    1.669    1.708    1.123    2.245    1.105    2.177    1.819    0.578    2.037    1.526    2.917    1.665    1.152    2.479    2.138    3.119    1.822    1.138    1.669    1.011    2.076    2.561   -0.101    1.390    1.529    0.899    1.936    2.144    2.321    2.607    1.169    8.700    1.383 
DATE 2015:202:14:41:32 obsn  30 az 329 el 32 freq_MHz  1415.0000 Tsys 165.800 Tant 10.061 vlsr  -27.26 glat -2.092 glon 111.560 source CasA 
Fstart 1413.997 fstop 1416.003 spacing 0.009375 bw    2.400 fbw    2.000 MHz nfreq 256 nsam 1048576 npoint 214 integ    63 sigma    0.430 bsw 29
Spectrum 
   2.342    2.826    3.080    2.083    2.034    2.734    2.778    2.071    1.935    3.016    2.439    1.880    3.020    2.319    2.763    2.392    0.769    2.618    2.824    1.668    2.763    1.349    2.496    2.144    1.604    3.391    2.697    2.194    2.379    1.120    3.483    2.238    2.586    2.574    0.387    1.497    0.560    1.515    2.731    1.350    3.616    2.319    2.677    9.793    1.961    2.177    1.650    3.843    2.155    1.036    1.849    2.651    2.098    1.783    2.083    1.783    2.287    0.497    2.205    1.775    1.518    0.852    2.011    1.928    1.886    1.709    2.173    1.188    2.388    1.848    0.819    1.608    1.798    1.835    1.998   -0.879    2.084    1.722    2.748    1.666   -0.808    2.309    1.720    1.964    1.967    1.375    1.930    2.223    0.785    1.108    1.686    1.550    1.595    2.309    1.442   -0.560    2.359    2.124    1.332    2.247    0.819   -0.181    1.227    0.815    1.401    1.519   -0.780    2.182    1.149    1.520    2.292   -0.070    1.384    0.719    1.862    2.206    2.057    1.442   -1.114    1.820    1.317   -0.252    2.213    1.645    0.971    2.390   -0.297    1.081    0.997    1.410    1.784   -1.638    2.789    0.671    2.204    2.220   -0.125    2.310    1.556    0.234    1.054   -1.897   -1.659    0.776    1.208    1.516    2.328    2.534   10.958    1.237    1.523    1.865    1.300    2.486    0.993    0.671    2.274    1.474    1.533   -0.116    1.081    1.929    0.927    1.827    1.940    1.804    1.938    2.215    1.877    2.070    1.801    1.470    0.727    2.320    1.776    1.848    2.384   -1.241    1.084    2.004   -0.437    1.628    1.638    1.095    2.211    1.125    2.033    1.721    0.418    1.985    1.406    2.836    1.742    1.113    2.322    2.096    3.016    1.889    1.180    1.692    1.009    1.946    2.494   -0.150    1.346    1.515    0.852    1.763    2.136    2.261    2.567    1.011    8.720    1.330 
DATE 2015:202:14:41:49 obsn  31 az 322 el 32 freq_MHz  1415.0000 Tsys 165.800 Tant 10.305 vlsr  -27.26 glat -2.092 glon 111.560 source CasA 
Fstart 1413.997 fstop 1416.003 spacing 0.009375 bw    2.400 fbw    2.000 MHz nfreq 256 nsam 1048576 npoint 214 integ    66 sigma    0.423 bsw 30
Spectrum 
   2.362    2.826    3.040    2.232    2.148    2.745    2.882    2.294    2.000    3.147    2.479    1.964    3.030    2.377    2.732    2.607    0.738    2.737    2.841    1.660    2.676    1.235    2.499    2.093    1.607    3.467    2.733    2.229    2.492    1.120    3.595    2.377    2.679    2.514    0.449    1.713    0.617    1.364    2.624    1.284    3.776    2.404    2.799    9.990    2.134    2.255    1.644    3.931    2.318    1.071    2.061    2.720    2.103    1.808    2.024    1.884    2.211    0.623    2.092    1.729    1.506    0.734    2.122    1.951    1.826    1.749    2.075    1.277    2.337    1.855    0.679    1.708    1.878    1.910    2.001   -0.956    2.112    1.536    2.859    1.438   -1.067    2.290    1.659    1.823    2.076    1.418    1.795    2.218    0.706    1.229    1.645    1.446    1.476    2.131    1.525   -0.524    2.251    2.233    1.277    2.317    0.732   -0.235    1.173    0.733    1.391    1.390   -0.878    2.146    0.949    1.501    2.171   -0.179    1.312    0.732    1.823    2.074    1.822    1.333   -1.336    1.621    1.258   -0.438    2.173    1.502    0.838    2.422   -0.506    1.094    0.838    1.183    1.765   -1.750    2.688    0.507    2.113    2.085   -0.318    2.293    1.293    0.021    0.878   -2.074   -1.853    0.657    1.074    1.464    2.181    2.358   10.657    1.195    1.530    1.658    1.189    2.404    0.845    0.666    2.028    1.210    1.489   -0.341    0.919    1.824    0.860    1.789    1.782    1.679    1.861    2.120    1.713    1.928    1.654    1.290    0.539    2.251    1.740    1.687    2.262   -1.458    0.877    1.800   -0.646    1.591    1.458    1.093    2.132    1.097    2.036    1.602    0.292    1.834    1.357    2.624    1.594    0.777    2.237    1.947    2.892    1.849    1.052    1.555    0.739    1.817    2.456   -0.259    1.341    1.334    0.691    1.674    1.939    2.131    2.551    0.849    8.811    1.142 
DATE 2015:202:14:42:10 obsn  32 az 315 el 32 freq_MHz  1415.0000 Tsys 165.800 Tant  6.406 vlsr  -27.26 glat -2.092 glon 111.560 source CasA 
Fstart 1413.997 fstop 1416.003 spacing 0.009375 bw    2.400 fbw    2.000 MHz nfreq 256 nsam 1048576 npoint 214 integ    68 sigma    0.416 bsw 31
Spectrum 
   2.525    2.764    3.024    2.302    2.144    2.777    2.973    2.378    2.175    3.115    2.537    1.943    3.101    2.465    2.843    2.601    0.784    2.780    2.897    1.654    2.798    1.261    2.510    2.105    1.677    3.554    2.740    2.387    2.506    1.275    3.642    2.395    2.700    2.575    0.475    1.780    0.667    1.498    2.712    1.495    3.922    2.387    2.788    9.903    2.081    2.336    1.800    3.828    2.420    1.149    2.078    2.686    2.174    1.833    2.064    1.884    2.074    0.707    2.130    1.938    1.624    0.922    2.071    1.961    1.974    1.658    2.108    1.483    2.370    1.841    0.851    1.842    1.889    2.003    1.997   -0.876    2.166    1.500    2.945    1.502   -1.113    2.188    1.639    1.743    2.167    1.483    1.803    2.276    0.835    1.308    1.776    1.531    1.256    2.099    1.595   -0.381    2.386    2.396    1.301    2.302    0.809   -0.173    1.183    0.727    1.460    1.501   -0.774    2.171    0.978    1.590    2.094   -0.230    1.287    0.695    1.876    2.066    1.923    1.360   -1.220    1.627    1.383   -0.355    2.148    1.415    0.786    2.385   -0.439    1.002    0.907    1.153    1.763   -1.667    2.667    0.512    2.013    2.118   -0.426    2.335    1.363    0.099    0.935   -1.917   -1.770    0.818    1.168    1.460    2.195    2.421   10.428    1.060    1.528    1.757    1.221    2.514    0.931    0.707    1.988    1.194    1.574   -0.274    0.971    1.746    0.784    1.707    1.843    1.871    1.857    2.194    1.578    1.958    1.549    1.392    0.610    2.224    1.742    1.696    2.203   -1.384    0.796    1.892   -0.506    1.573    1.442    1.035    1.997    1.211    1.980    1.501    0.253    1.864    1.482    2.549    1.674    0.719    2.227    1.977    2.930    1.973    1.056    1.584    0.619    1.776    2.400   -0.235    1.427    1.383    0.632    1.695    1.954    2.225    2.609    0.892   10.969    1.211 
DATE 2015:202:14:42:28 obsn  33 az 322 el 32 freq_MHz  1415.0000 Tsys 165.800 Tant  6.816 vlsr  -27.26 glat -2.092 glon 111.560 source CasA 
Fstart 1413.997 fstop 1416.003 spacing 0.009375 bw    2.400 fbw    2.000 MHz nfreq 256 nsam 1048576 npoint 214 integ    70 sigma    0.410 bsw 32
Spectrum 
 177.499  175.862  175.573  175.166  175.441  175.578  174.665  175.292  175.434  174.510  174.227  174.336  173.467  173.606  173.328  173.193  173.941  173.920  173.647  175.091  173.734  174.811  173.691  174.097  175.174  174.281  174.165  175.162  175.069  175.570  178.372  174.474  174.625  175.225  175.616  174.461  175.814  175.172  175.372  175.543  176.483  174.454  175.888  181.582  174.142  174.487  174.778  174.968  174.182  175.140  173.394  174.102  173.816  173.745  174.425  174.139  173.470  174.673  173.954  174.611  174.050  174.493  174.247  174.225  174.009  173.748  173.689  173.647  173.664  173.644  174.422  173.954  173.736  173.611  173.898  175.578  173.430  173.982  174.174  173.327  174.997  172.911  172.592  173.089  172.754  173.491  173.864  173.363  172.879  172.231  172.877  173.260  173.019  172.716  172.571  174.166  172.847  173.320  173.448  173.320  173.408  173.528  173.509  172.746  173.235  173.378  174.329  173.479  173.196  173.131  173.045  173.999  173.595  173.548  173.796  173.504  173.023  174.149  175.132  173.360  173.274  174.482  173.130  173.464  174.111  173.849  174.248  173.277  173.868  172.875  173.197  175.204  174.983  173.209  173.926  173.721  174.862  174.921  173.135  173.711  173.414  175.198  175.356  174.177  173.742  173.035  173.891  174.823  179.698  173.363  173.378  173.138  173.551  174.085  173.402  174.327  173.626  174.750  173.672  175.409  173.336  173.786  174.544  174.068  174.178  174.487  174.251  174.538  174.832  174.638  174.362  174.474  175.101  175.617  174.031  175.409  175.538  176.140  174.296  175.115  176.026  174.360  174.773  175.216  174.423  174.614  174.254  173.836  174.157  173.505  174.038  174.099  174.474  174.283  173.690  174.322  174.090  173.904  174.232  174.434  175.273  174.710  174.877  176.700  175.227  176.113  175.353  174.763  174.384  174.000  172.651  172.656  213.153  176.404 
DATE 2015:202:14:42:42 obsn  34 az 322 el 32 freq_MHz  1415.0000 Tsys 165.800 Tant 10.010 vlsr  -27.26 glat -2.092 glon 111.560 source CasA 
Fstart 1413.997 fstop 1416.003 spacing 0.009375 bw    2.400 fbw    2.000 MHz nfreq 256 nsam 1048576 npoint 214 integ    72 sigma    0.403 bsw 32
Spectrum 
   2.516    2.754    2.843    2.318    1.986    2.702    3.034    2.226    1.889    3.143    2.558    1.965    3.040    2.366    2.868    2.707    0.781    2.746    2.738    2.027    2.706    1.289    2.469    2.168    1.554    3.362    2.792    2.208    2.483    1.359    3.570    2.330    2.757    2.462    0.616    1.955    0.756    1.301    2.657    1.267    3.875    2.270    2.770   10.064    2.201    2.260    1.757    3.748    2.279    1.197    2.168    2.669    2.152    1.994    2.164    1.987    2.126    0.807    2.023    2.019    1.602    0.710    2.099    1.992    1.980    1.817    1.998    1.692    2.451    1.710    1.055    1.958    2.040    2.139    2.062   -0.705    2.065    1.627    2.907    1.567   -0.969    2.172    1.777    1.550    2.287    1.333    1.892    2.478    0.783    1.326    1.674    1.596    1.407    2.308    1.606   -0.145    2.497    2.343    1.422    2.446    0.807   -0.039    1.032    0.925    1.598    1.310   -0.704    2.122    1.021    1.618    2.112   -0.184    1.492    0.859    1.924    2.044    2.136    1.567   -1.094    1.544    1.419   -0.109    2.275    1.471    0.736    2.255   -0.296    1.076    1.209    1.366    1.755   -1.550    2.889    0.436    2.179    2.200   -0.225    2.370    1.483    0.205    0.960   -1.636   -1.637    0.833    1.205    1.622    2.438    2.387   10.384    1.091    1.534    1.644    1.120    2.586    0.955    0.908    1.991    1.220    1.639   -0.233    0.988    1.736    0.982    1.687    1.850    1.883    2.238    2.319    1.916    1.758    1.704    1.333    0.632    2.256    1.736    2.006    2.404   -1.133    0.712    1.968   -0.202    1.765    1.563    1.229    2.074    1.184    2.086    1.582    0.385    2.190    1.452    2.396    1.894    0.752    2.183    2.069    3.099    2.016    0.989    1.621    0.568    1.858    2.449   -0.196    1.611    1.407    0.810    1.878    2.207    2.277    2.693    1.049   14.293    1.394 
DATE 2015:202:14:43:01 obsn  35 az 329 el 32 freq_MHz  1415.0000 Tsys 165.800 Tant 10.148 vlsr  -27.26 glat -2.092 glon 111.560 source CasA 
Fstart 1413.997 fstop 1416.003 spacing 0.009375 bw    2.400 fbw    2.000 MHz nfreq 256 nsam 1048576 npoint 214 integ    74 sigma    0.397 bsw 33
Spectrum 
   2.459    2.923    2.843    2.345    2.050    2.817    3.028    2.451    1.922    3.174    2.498    2.038    3.027    2.282    2.889    2.817    0.616    2.830    2.699    2.073    2.783    1.288    2.467    2.222    1.481    3.266    2.776    2.325    2.557    1.359    3.659    2.256    2.789    2.488    0.427    1.897    0.566    1.160    2.724    1.067    3.875    2.263    2.695   10.180    2.095    2.162    1.790    3.768    2.137    1.083    2.088    2.632    2.035    1.925    2.235    1.918    2.030    0.600    1.995    2.050    1.588    0.581    2.024    2.053    1.942    1.668    1.918    1.641    2.320    1.651    1.008    1.795    2.062    2.087    1.990   -0.860    2.094    1.586    2.877    1.549   -1.140    2.066    1.651    1.518    2.224    1.204    1.837    2.396    0.664    1.243    1.564    1.613    1.373    2.143    1.566   -0.382    2.405    2.251    1.262    2.326    0.791   -0.239    0.892    0.795    1.546    1.155   -0.824    2.087    0.948    1.698    1.988   -0.373    1.417    0.749    1.823    2.096    2.051    1.470   -1.136    1.497    1.372   -0.337    2.152    1.215    0.615    2.094   -0.552    0.921    1.074    1.159    1.712   -1.800    2.877    0.350    2.006    2.033   -0.504    2.241    1.345    0.042    0.710   -1.956   -1.884    0.868    1.057    1.472    2.303    2.345    9.932    0.957    1.353    1.410    0.952    2.369    0.849    0.740    1.817    0.990    1.494   -0.471    0.853    1.643    0.945    1.553    1.719    1.673    2.166    2.168    1.815    1.730    1.685    1.247    0.461    2.004    1.632    1.789    2.279   -1.317    0.412    1.827   -0.433    1.743    1.479    1.212    1.967    0.966    1.980    1.506    0.133    2.036    1.291    2.277    1.727    0.637    1.991    1.797    3.083    1.917    0.892    1.509    0.342    1.658    2.296   -0.327    1.407    1.314    0.607    1.828    2.061    2.215    2.448    0.756   13.582    1.202 
DATE 2015:202:14:43:18 obsn  36 az 322 el 32 freq_MHz  1415.0000 Tsys 165.800 Tant 10.031 vlsr  -27.26 glat -2.092 glon 111.560 source CasA 
Fstart 1413.997 fstop 1416.003 spacing 0.009375 bw    2.400 fbw    2.000 MHz nfreq 256 nsam 1048576 npoint 214 integ    76 sigma    0.392 bsw 34
Spectrum 
   2.515    2.827    2.940    2.397    2.041    2.765    2.983    2.636    1.879    3.269    2.537    2.128    2.929    2.364    3.067    2.852    0.750    2.915    2.709    2.124    2.738    1.344    2.520    2.152    1.449    3.283    2.836    2.302    2.648    1.372    3.616    2.326    2.691    2.322    0.548    1.986    0.659    1.274    2.797    1.162    3.890    2.312    2.659   10.166    2.228    2.236    1.958    3.757    2.018    1.138    2.092    2.659    2.154    1.926    2.175    1.912    2.008    0.580    2.038    2.090    1.608    0.644    2.065    1.982    1.984    1.659    1.894    1.705    2.430    1.581    1.040    1.805    1.978    2.155    1.995   -0.738    1.980    1.594    2.913    1.691   -1.162    2.094    1.678    1.666    2.232    1.216    1.770    2.354    0.583    1.421    1.662    1.614    1.336    2.272    1.622   -0.404    2.399    2.184    1.530    2.397    0.811   -0.402    0.862    0.744    1.458    1.124   -0.738    2.124    1.004    1.649    2.027   -0.423    1.459    0.691    1.833    2.132    2.132    1.394   -1.235    1.434    1.348   -0.372    2.065    1.248    0.575    2.090   -0.539    1.003    1.061    1.154    1.840   -1.680    2.865    0.523    2.001    2.028   -0.560    2.345    1.374    0.120    0.701   -2.007   -2.011    0.695    1.084    1.489    2.353    2.470    9.787    0.822    1.435    1.443    0.905    2.345    0.931    0.806    1.902    0.948    1.451   -0.438    0.859    1.721    0.961    1.480    1.683    1.601    2.082    2.189    1.662    1.663    1.603    1.145    0.402    1.916    1.605    1.812    2.235   -1.259    0.433    1.774   -0.376    1.628    1.563    1.243    1.989    0.978    1.889    1.452    0.063    2.004    1.218    2.282    1.826    0.539    1.867    1.661    2.967    1.917    0.835    1.474    0.201    1.676    2.288   -0.372    1.366    1.248    0.445    1.777    2.002    2.191    2.454    0.705   14.961    1.298 
DATE 2015:202:14:43:36 obsn  37 az 315 el 32 freq_MHz  1415.0000 Tsys 165.800 Tant  7.188 vlsr  -27.26 glat -2.092 glon 111.560 source CasA 
Fstart 1413.997 fstop 1416.003 spacing 0.009375 bw    2.400 fbw    2.000 MHz nfreq 256 nsam 1048576 npoint 214 integ    79 sigma    0.386 bsw 35
Spectrum 
   2.501    2.824    2.794    2.295    2.085    2.737    2.873    2.576    1.870    3.245    2.505    1.984    2.862    2.235    2.995    2.746    0.774    2.914    2.897    2.089    2.612    1.329    2.573    2.189    1.478    3.194    2.741    2.247    2.621    1.480    3.597    2.173    2.646    2.284    0.660    2.041    0.698    1.161    2.718    1.035    3.884    2.410    2.739   10.047    2.200    2.237    1.896    3.709    1.977    1.129    2.131    2.674    2.113    1.944    2.098    2.008    1.989    0.453    2.118    2.056    1.681    0.702    1.983    2.022    2.014    1.756    1.833    1.755    2.319    1.630    1.235    1.705    1.937    2.264    1.940   -0.688    1.941    1.545    2.897    1.692   -0.976    2.199    1.774    1.758    2.237    1.224    1.700    2.463    0.633    1.329    1.706    1.572    1.291    2.336    1.718   -0.296    2.540    2.353    1.482    2.420    0.904   -0.324    0.827    0.800    1.535    1.165   -0.673    2.241    1.108    1.641    2.099   -0.329    1.409    0.806    2.003    2.170    2.245    1.534   -1.077    1.588    1.423   -0.148    2.141    1.340    0.622    2.209   -0.465    1.123    1.282    1.294    1.864   -1.516    2.821    0.619    2.053    2.110   -0.628    2.393    1.321    0.242    0.842   -1.914   -1.903    0.729    1.169    1.488    2.403    2.541    9.794    0.867    1.445    1.589    0.990    2.437    1.085    0.823    1.845    0.987    1.460   -0.411    0.907    1.728    0.905    1.517    1.812    1.678    2.075    2.283    1.750    1.701    1.709    1.270    0.556    1.988    1.634    1.890    2.373   -1.129    0.590    1.809   -0.242    1.637    1.609    1.321    2.005    1.043    1.900    1.467    0.043    2.101    1.242    2.338    1.879    0.593    1.982    1.675    3.007    2.011    0.990    1.545    0.321    1.700    2.382   -0.190    1.418    1.318    0.537    1.912    2.118    2.374    2.400    0.777   16.482    1.474 
DATE 2015:202:14:43:55 obsn  38 az 322 el 32 freq_MHz  1415.0000 Tsys 165.800 Tant  9.240 vlsr  -27.26 glat -2.092 glon 111.560 source CasA 
Fstart 1413.997 fstop 1416.003 spacing 0.009375 bw    2.400 fbw    2.000 MHz nfreq 256 nsam 1048576 npoint 214 integ    81 sigma    0.381 bsw 36
Spectrum 
   2.449    2.771    2.689    2.193    1.964    2.594    2.764    2.631    1.934    3.250    2.417    1.934    2.798    2.218    3.067    2.704    0.796    2.937    2.835    2.124    2.616    1.278    2.556    2.057    1.404    3.194    2.641    2.223    2.519    1.522    3.574    2.056    2.705    2.387    0.667    2.027    0.730    1.105    2.799    1.010    3.804    2.431    2.628   10.073    2.223    2.164    1.780    3.602    2.062    1.244    2.096    2.714    2.070    1.998    2.065    2.001    1.999    0.570    1.957    2.002    1.713    0.753    1.905    2.039    2.060    1.679    1.724    1.749    2.302    1.679    1.197    1.712    2.110    2.284    1.911   -0.585    1.920    1.592    2.890    1.777   -0.959    2.146    1.737    1.821    2.282    1.146    1.626    2.462    0.691    1.320    1.661    1.510    1.346    2.354    1.841   -0.269    2.623    2.329    1.500    2.308    0.941   -0.317    0.794    0.739    1.673    1.117   -0.646    2.311    1.130    1.688    2.054   -0.353    1.378    0.871    2.049    2.177    2.221    1.507   -1.103    1.509    1.360   -0.154    2.124    1.354    0.572    2.251   -0.466    1.095    1.313    1.309    1.773   -1.379    2.842    0.650    2.126    2.098   -0.596    2.426    1.289    0.213    0.743   -1.837   -1.785    0.744    1.194    1.568    2.403    2.659    9.907    0.792    1.451    1.650    1.019    2.336    1.014    0.934    1.825    1.014    1.404   -0.477    0.948    1.851    0.890    1.517    1.846    1.743    2.035    2.273    1.814    1.669    1.674    1.237    0.531    1.967    1.759    1.919    2.373   -1.076    0.662    1.809   -0.262    1.614    1.588    1.279    1.952    0.966    1.888    1.480    0.087    2.111    1.326    2.305    1.735    0.480    1.927    1.665    3.046    1.932    0.896    1.569    0.339    1.720    2.438   -0.239    1.425    1.435    0.644    1.925    2.062    2.337    2.398    0.837   17.648    1.497 
DATE 2015:202:14:44:14 obsn  39 az 329 el 32 freq_MHz  1415.0000 Tsys 165.800 Tant  9.232 vlsr  -27.26 glat -2.092 glon 111.560 source CasA 
Fstart 1413.997 fstop 1416.003 spacing 0.009375 bw    2.400 fbw    2.000 MHz nfreq 256 nsam 1048576 npoint 214 integ    83 sigma    0.376 bsw 37
Spectrum 
   2.552    2.887    2.703    2.144    2.098    2.645    2.811    2.699    1.890    3.264    2.424    1.962    2.873    2.213    3.121    2.752    0.729    2.985    2.788    2.178    2.561    1.237    2.497    2.081    1.402    3.252    2.545    2.250    2.689    1.450    3.601    2.111    2.602    2.384    0.681    2.049    0.734    0.951    2.810    0.939    3.930    2.348    2.678   10.088    2.169    2.225    1.764    3.522    2.076    1.342    2.176    2.728    2.128    1.966    2.084    1.928    2.072    0.582    1.949    2.045    1.650    0.726    1.910    1.900    2.073    1.626    1.640    1.655    2.125    1.682    1.200    1.627    2.057    2.172    1.841   -0.821    1.914    1.657    2.804    1.733   -1.063    2.084    1.645    1.829    2.224    1.127    1.643    2.410    0.652    1.268    1.663    1.648    1.323    2.277    1.802   -0.305    2.645    2.331    1.604    2.259    0.803   -0.301    0.840    0.681    1.753    0.986   -0.738    2.236    1.177    1.640    1.997   -0.505    1.483    0.772    2.070    2.337    2.111    1.321   -1.206    1.592    1.440   -0.269    2.172    1.348    0.525    2.155   -0.643    1.046    1.267    1.268    1.803   -1.335    2.860    0.675    2.149    2.091   -0.593    2.404    1.255    0.187    0.637   -1.907   -1.981    0.653    1.132    1.561    2.262    2.626    9.689    0.719    1.482    1.553    0.969    2.272    0.986    0.936    1.712    0.842    1.381   -0.638    0.903    1.806    0.815    1.474    1.669    1.630    1.995    2.146    1.840    1.647    1.590    1.147    0.430    1.984    1.660    1.815    2.243   -1.167    0.575    1.709   -0.467    1.476    1.537    1.212    1.896    0.946    1.785    1.425   -0.011    2.073    1.261    2.196    1.690    0.457    1.902    1.542    3.137    1.868    0.876    1.493    0.149    1.669    2.380   -0.318    1.495    1.323    0.621    1.868    1.958    2.271    2.392    0.852   17.811    1.423 
DATE 2015:202:14:44:31 obsn  40 az 322 el 32 freq_MHz  1415.0000 Tsys 165.800 Tant 10.479 vlsr  -27.26 glat -2.092 glon 111.560 source CasA 
Fstart 1413.997 fstop 1416.003 spacing 0.009375 bw    2.400 fbw    2.000 MHz nfreq 256 nsam 1048576 npoint 214 integ    85 sigma    0.371 bsw 38
Spectrum 
   2.629    2.934    2.926    2.285    2.191    2.769    2.864    2.838    1.899    3.270    2.455    1.938    2.799    2.242    3.105    2.690    0.791    3.092    2.892    2.268    2.564    1.217    2.501    2.111    1.464    3.224    2.636    2.257    2.716    1.476    3.733    2.148    2.636    2.473    0.720    2.067    0.813    0.888    2.808    0.961    4.019    2.389    2.745   10.180    2.203    2.173    1.770    3.526    2.025    1.257    2.180    2.710    2.094    1.956    2.033    1.922    2.149    0.506    1.922    2.031    1.707    0.769    1.965    2.012    2.102    1.550    1.688    1.749    2.182    1.761    1.272    1.613    2.107    2.252    1.869   -0.919    1.905    1.784    2.783    1.845   -1.193    2.004    1.691    1.811    2.142    1.017    1.642    2.338    0.669    1.418    1.718    1.575    1.218    2.275    1.912   -0.359    2.522    2.427    1.638    2.370    0.659   -0.285    0.838    0.579    1.706    1.045   -0.884    2.146    1.223    1.604    1.937   -0.422    1.315    0.843    2.146    2.268    2.110    1.292   -1.181    1.512    1.495   -0.179    2.133    1.306    0.518    2.090   -0.782    0.969    1.277    1.182    1.813   -1.410    2.803    0.673    2.067    2.093   -0.609    2.403    1.258    0.078    0.645   -1.917   -2.058    0.673    1.119    1.499    2.232    2.511    9.428    0.710    1.502    1.617    0.955    2.287    1.007    0.914    1.682    0.860    1.361   -0.693    0.922    1.731    0.802    1.488    1.567    1.605    2.035    2.053    1.648    1.644    1.561    1.171    0.393    1.953    1.660    1.881    2.127   -1.291    0.581    1.623   -0.576    1.330    1.394    1.141    1.907    0.889    1.746    1.496   -0.092    2.046    1.350    2.211    1.659    0.365    1.852    1.550    3.030    1.786    0.819    1.452   -0.011    1.576    2.211   -0.377    1.575    1.308    0.587    1.913    2.019    2.199    2.291    0.798   18.039    1.260 
DATE 2015:202:14:44:50 obsn  41 az 315 el 32 freq_MHz  1415.0000 Tsys 165.800 Tant  6.949 vlsr  -27.26 glat -2.092 glon 111.560 source CasA 
Fstart 1413.997 fstop 1416.003 spacing 0.009375 bw    2.400 fbw    2.000 MHz nfreq 256 nsam 1048576 npoint 214 integ    87 sigma    0.366 bsw 39
Spectrum 
   2.563    2.965    2.952    2.327    2.323    2.810    2.919    2.882    1.986    3.198    2.508    1.940    2.780    2.155    3.097    2.621    0.825    2.950    2.779    2.306    2.647    1.183    2.595    2.189    1.434    3.114    2.781    2.319    2.637    1.509    3.814    2.142    2.532    2.474    0.795    2.152    0.877    1.014    2.805    0.991    4.057    2.399    2.748   10.146    2.287    2.200    1.761    3.499    2.033    1.263    2.157    2.669    2.061    1.893    2.027    1.970    2.160    0.638    1.870    2.059    1.700    0.780    2.016    2.039    2.110    1.485    1.742    1.765    2.232    1.832    1.395    1.661    2.186    2.316    1.907   -0.782    1.893    1.958    2.859    1.916   -1.123    2.124    1.730    1.759    2.225    1.083    1.679    2.447    0.748    1.480    1.803    1.620    1.271    2.347    1.944   -0.384    2.537    2.518    1.720    2.422    0.674   -0.195    0.877    0.647    1.693    1.161   -0.772    2.124    1.228    1.750    1.953   -0.397    1.338    0.923    2.191    2.317    2.261    1.303   -1.126    1.498    1.523   -0.077    2.123    1.320    0.528    2.186   -0.679    1.090    1.319    1.233    1.814   -1.257    2.761    0.724    2.132    2.179   -0.635    2.465    1.318    0.158    0.653   -1.961   -1.967    0.663    1.092    1.538    2.249    2.589    9.499    0.718    1.496    1.538    0.886    2.303    0.888    0.968    1.757    1.018    1.415   -0.641    1.074    1.835    0.769    1.533    1.538    1.568    2.066    2.101    1.753    1.786    1.530    1.299    0.364    2.018    1.780    1.882    2.184   -1.132    0.572    1.565   -0.607    1.300    1.418    1.130    1.968    1.036    1.839    1.438   -0.055    2.066    1.317    2.162    1.665    0.451    1.784    1.510    3.033    1.744    0.910    1.537    0.071    1.655    2.350   -0.328    1.532    1.357    0.742    1.945    2.023    2.233    2.228    0.843   19.169    1.369 
DATE 2015:202:14:45:09 obsn  42 az 322 el 32 freq_MHz  1415.0000 Tsys 165.800 Tant 10.127 vlsr  -27.26 glat -2.092 glon 111.560 source CasA 
Fstart 1413.997 fstop 1416.003 spacing 0.009375 bw    2.400 fbw    2.000 MHz nfreq 256 nsam 1048576 npoint 214 integ    90 sigma    0.362 bsw 40
Spectrum 
   2.479    2.829    3.013    2.325    2.282    2.827    2.788    2.972    2.090    3.127    2.603    2.037    2.560    2.255    3.110    2.582    0.738    2.935    2.814    2.356    2.681    1.183    2.587    2.211    1.488    3.122    2.771    2.336    2.699    1.615    3.836    2.100    2.512    2.575    0.855    2.084    0.860    1.123    2.772    1.154    4.057    2.255    2.704   10.172    2.239    2.192    1.733    3.449    1.943    1.365    2.184    2.657    2.162    2.022    2.116    1.965    2.144    0.701    1.909    2.115    1.768    0.807    2.036    2.213    2.171    1.507    1.758    1.729    2.245    1.788    1.428    1.785    2.158    2.304    2.019   -0.703    1.919    2.011    2.937    1.982   -0.943    2.193    1.738    1.792    2.252    1.199    1.710    2.643    0.800    1.599    1.858    1.665    1.287    2.343    2.010   -0.216    2.650    2.477    1.811    2.438    0.794   -0.134    0.913    0.607    1.711    1.239   -0.759    2.113    1.262    1.796    2.025   -0.324    1.431    0.944    2.227    2.384    2.174    1.319   -0.918    1.492    1.635    0.037    2.159    1.376    0.692    2.174   -0.646    1.090    1.409    1.267    1.861   -1.139    2.924    0.881    2.147    2.223   -0.546    2.547    1.397    0.267    0.668   -1.821   -1.755    0.610    1.226    1.579    2.386    2.604    9.650    0.779    1.667    1.559    0.972    2.377    0.915    0.983    1.856    1.171    1.461   -0.530    1.092    1.902    0.924    1.589    1.723    1.630    2.025    2.153    1.830    1.868    1.580    1.403    0.349    2.083    1.807    1.879    2.373   -1.000    0.721    1.718   -0.539    1.406    1.446    1.142    1.992    1.007    2.004    1.499    0.019    2.118    1.359    2.219    1.752    0.634    1.804    1.545    3.058    1.696    1.019    1.670    0.210    1.757    2.453   -0.172    1.623    1.376    0.806    1.871    2.124    2.299    2.330    1.000   20.442    1.432 
DATE 2015:202:14:45:28 obsn  43 az 329 el 32 freq_MHz  1415.0000 Tsys 165.800 Tant  8.513 vlsr  -27.26 glat -2.092 glon 111.560 source CasA 
Fstart 1413.997 fstop 1416.003 spacing 0.009375 bw    2.400 fbw    2.000 MHz nfreq 256 nsam 1048576 npoint 214 integ    92 sigma    0.358 bsw 41
Spectrum 
   2.345    2.858    3.052    2.323    2.266    2.827    2.813    2.849    2.039    3.084    2.523    1.992    2.513    2.248    3.058    2.583    0.760    3.020    2.749    2.318    2.572    1.191    2.553    2.226    1.490    3.207    2.820    2.294    2.666    1.638    3.836    2.064    2.543    2.613    0.928    2.041    0.857    1.169    2.745    1.076    4.050    2.250    2.655   10.281    2.220    2.164    1.681    3.353    1.971    1.353    2.116    2.685    2.222    2.033    2.186    2.044    2.192    0.692    1.908    2.124    1.797    0.819    2.026    2.234    2.142    1.554    1.792    1.607    2.136    1.798    1.334    1.792    2.113    2.285    2.045   -0.766    1.877    2.005    3.019    1.902   -0.935    2.115    1.671    1.834    2.211    1.159    1.766    2.624    0.778    1.589    1.908    1.577    1.307    2.303    2.084   -0.181    2.617    2.534    1.792    2.379    0.815   -0.206    0.976    0.694    1.758    1.304   -0.797    2.127    1.121    1.753    1.947   -0.236    1.404    0.890    2.179    2.255    2.160    1.318   -0.899    1.431    1.620   -0.041    2.050    1.361    0.664    2.097   -0.697    1.048    1.412    1.214    1.786   -1.175    2.740    0.921    2.050    2.176   -0.553    2.549    1.374    0.247    0.638   -1.825   -1.654    0.622    1.223    1.570    2.391    2.497    9.543    0.744    1.609    1.635    1.059    2.256    0.911    0.966    1.880    1.009    1.433   -0.593    0.984    1.820    0.896    1.633    1.691    1.570    2.012    2.159    1.823    1.826    1.599    1.380    0.332    2.014    1.889    1.834    2.214   -1.086    0.735    1.709   -0.552    1.327    1.366    1.049    2.012    0.891    1.941    1.368   -0.050    2.116    1.395    2.046    1.703    0.596    1.702    1.533    3.053    1.717    0.909    1.598    0.140    1.771    2.434   -0.260    1.538    1.309    0.746    1.796    2.044    2.213    2.256    0.977   20.896    1.359 
DATE 2015:202:14:45:45 obsn  44 az 323 el 32 freq_MHz  1415.0000 Tsys 165.800 Tant  8.282 vlsr  -27.26 glat -2.092 glon 111.560 source CasA 
Fstart 1413.997 fstop 1416.003 spacing 0.009375 bw    2.400 fbw    2.000 MHz nfreq 256 nsam 1048576 npoint 214 integ    94 sigma    0.353 bsw 42
Spectrum 
 177.510  175.872  175.319  175.126  175.224  175.492  174.777  175.126  175.370  174.552  174.136  174.158  173.442  173.657  173.376  173.044  174.150  173.570  173.352  175.063  173.821  174.941  173.736  174.031  175.122  174.291  174.334  175.100  175.092  175.778  178.442  174.462  174.795  175.071  175.722  174.564  176.065  175.378  175.453  175.451  176.467  174.359  175.752  181.811  174.319  174.508  174.585  174.856  174.236  175.111  173.385  174.128  173.869  173.757  174.449  174.210  173.459  174.932  173.964  174.620  174.081  174.456  174.259  174.000  174.026  173.958  173.697  173.621  173.762  173.690  174.606  174.013  173.915  173.820  173.812  175.667  173.312  173.889  174.179  173.220  175.188  173.055  172.648  173.023  172.898  173.293  173.841  173.502  172.905  172.331  173.141  173.404  173.150  172.780  172.522  174.255  173.009  173.396  173.726  173.503  173.345  173.422  173.544  173.035  173.240  173.370  174.462  173.462  173.199  173.071  173.115  174.161  173.519  173.410  173.787  173.380  173.164  174.216  175.050  173.366  173.198  174.429  173.244  173.355  173.959  173.763  174.353  173.385  173.975  173.218  173.310  175.293  174.831  173.466  174.119  173.810  174.851  174.945  173.151  173.639  173.316  175.289  175.542  173.968  173.931  173.214  173.786  174.895  180.072  173.328  173.432  173.585  173.725  173.952  173.503  174.525  173.764  174.737  173.631  175.512  173.307  173.852  174.323  174.021  174.393  174.500  174.454  174.533  174.946  174.371  174.212  174.397  175.102  175.661  174.046  175.505  175.560  176.190  174.375  174.828  176.068  174.253  174.773  175.067  174.583  174.695  174.122  173.920  174.429  173.613  174.002  173.821  174.419  174.235  173.690  174.418  174.031  173.844  174.061  174.392  175.211  174.752  175.055  176.503  175.309  175.968  175.507  174.441  174.087  173.754  172.702  172.995  216.934  176.533 
DATE 2015:202:14:45:59 obsn  45 az 322 el 32 freq_MHz  1415.0000 Tsys 165.800 Tant  9.248 vlsr  -27.26 glat -2.092 glon 111.560 source CasA 
Fstart 1413.997 fstop 1416.003 spacing 0.009375 bw    2.400 fbw    2.000 MHz nfreq 256 nsam 1048576 npoint 214 integ    96 sigma    0.349 bsw 42
Spectrum 
   2.456    2.957    3.241    2.362    2.387    2.835    2.862    2.983    2.033    3.115    2.466    2.028    2.493    2.260    3.118    2.685    0.861    3.096    2.883    2.513    2.575    1.184    2.533    2.313    1.562    3.216    2.816    2.286    2.603    1.540    3.924    2.065    2.406    2.675    0.941    2.125    0.857    1.032    2.779    1.059    4.085    2.345    2.733   10.236    2.268    2.242    1.782    3.447    1.897    1.403    2.185    2.703    2.272    2.054    2.165    2.078    2.324    0.745    1.943    2.138    1.797    0.893    2.101    2.240    2.156    1.740    1.801    1.588    2.215    1.772    1.221    1.796    2.119    2.376    1.973   -0.786    1.828    2.046    3.193    1.892   -1.093    2.037    1.680    1.871    2.082    1.062    1.733    2.500    0.718    1.462    1.774    1.585    1.322    2.213    1.877   -0.179    2.558    2.515    1.906    2.288    0.718   -0.172    1.005    0.551    1.685    1.299   -0.853    2.039    0.929    1.770    1.751   -0.406    1.496    0.735    2.081    2.268    2.086    1.193   -0.896    1.370    1.564   -0.109    1.993    1.312    0.660    2.067   -0.790    1.044    1.307    1.118    1.650   -1.037    2.789    0.773    1.943    2.091   -0.622    2.481    1.234    0.078    0.578   -2.050   -1.826    0.624    1.104    1.551    2.328    2.403    9.117    0.629    1.543    1.435    0.849    2.312    0.915    0.855    1.852    1.069    1.346   -0.741    0.992    1.666    0.594    1.616    1.589    1.411    1.806    2.077    1.811    1.653    1.512    1.334    0.317    1.881    1.849    1.741    2.038   -1.158    0.684    1.768   -0.841    1.410    1.267    0.961    1.997    0.840    1.900    1.330   -0.083    1.881    1.335    1.826    1.734    0.500    1.539    1.286    2.943    1.590    0.841    1.457   -0.033    1.729    2.379   -0.529    1.456    1.227    0.652    1.769    2.048    2.076    2.147    0.886   21.273    1.263 
DATE 2015:202:14:46:23 obsn  46 az 322 el 32 freq_MHz  1415.0000 Tsys 165.800 Tant  8.378 vlsr  -27.26 glat -2.092 glon 111.560 source CasA 
Fstart 1413.997 fstop 1416.003 spacing 0.009375 bw    2.400 fbw    2.000 MHz nfreq 256 nsam 1048576 npoint 214 integ    98 sigma    0.173 bsw 0
Spectrum 
 177.584  175.973  175.411  175.162  175.305  175.561  174.845  175.087  175.412  174.593  174.123  174.163  173.424  173.672  173.404  173.102  174.179  173.594  173.397  175.095  173.896  174.987  173.800  174.026  175.139  174.325  174.386  175.059  175.099  175.808  178.503  174.466  174.801  175.093  175.759  174.600  176.070  175.404  175.478  175.385  176.518  174.367  175.826  181.991  174.410  174.581  174.649  174.929  174.218  175.170  173.394  174.146  173.851  173.813  174.521  174.234  173.497  174.990  173.981  174.634  174.071  174.514  174.207  174.021  174.063  174.057  173.708  173.619  173.836  173.694  174.601  174.025  173.912  173.867  173.806  175.646  173.274  173.892  174.330  173.225  175.115  173.077  172.753  173.012  172.872  173.303  173.766  173.521  172.921  172.266  173.155  173.487  173.234  172.763  172.483  174.234  173.053  173.491  173.829  173.466  173.359  173.403  173.574  173.039  173.277  173.281  174.459  173.441  173.161  173.080  173.066  174.062  173.488  173.372  173.789  173.393  173.198  174.187  175.068  173.374  173.211  174.339  173.269  173.312  173.887  173.701  174.324  173.414  173.935  173.258  173.284  175.293  174.804  173.445  174.060  173.857  174.873  174.995  173.178  173.565  173.270  175.162  175.492  173.937  173.932  173.229  173.791  174.932  180.159  173.314  173.451  173.552  173.741  174.061  173.542  174.494  173.788  174.828  173.617  175.432  173.351  173.843  174.228  174.021  174.370  174.467  174.449  174.537  174.942  174.342  174.170  174.421  175.127  175.633  174.048  175.488  175.547  176.127  174.384  174.841  175.899  174.230  174.760  175.047  174.636  174.668  174.074  173.901  174.400  173.584  173.945  173.818  174.432  174.256  173.729  174.279  174.074  173.828  174.070  174.357  175.142  174.691  175.099  176.420  175.266  175.954  175.458  174.456  174.094  173.726  172.761  173.007  218.543  176.509 
DATE 2015:202:14:46:37 obsn  47 az 322 el 32 freq_MHz  1415.0000 Tsys 165.800 Tant  8.892 vlsr  -27.26 glat -2.092 glon 111.560 source CasA 
Fstart 1413.997 fstop 1416.003 spacing 0.009375 bw    2.400 fbw    2.000 MHz nfreq 256 nsam 1048576 npoint 214 integ   100 sigma    0.171 bsw 0
Spectrum 
 177.564  175.989  175.405  175.205  175.321  175.546  174.892  175.059  175.414  174.550  174.121  174.187  173.463  173.655  173.427  173.101  174.205  173.677  173.374  175.107  173.893  174.989  173.792  174.046  175.125  174.358  174.381  175.071  175.084  175.821  178.532  174.495  174.774  175.125  175.744  174.626  176.064  175.391  175.486  175.351  176.517  174.402  175.854  182.161  174.443  174.534  174.634  174.931  174.251  175.144  173.416  174.156  173.870  173.790  174.492  174.235  173.538  174.948  174.028  174.683  174.072  174.495  174.269  174.007  174.078  174.069  173.741  173.584  173.846  173.737  174.599  174.015  173.927  173.889  173.795  175.626  173.267  173.908  174.347  173.213  175.074  173.040  172.736  172.984  172.890  173.318  173.740  173.572  172.845  172.282  173.148  173.454  173.216  172.759  172.474  174.228  173.057  173.483  173.761  173.472  173.344  173.372  173.533  173.039  173.282  173.292  174.428  173.422  173.143  173.066  173.077  174.024  173.510  173.357  173.773  173.424  173.211  174.177  175.052  173.388  173.193  174.300  173.289  173.271  173.868  173.707  174.290  173.430  173.938  173.276  173.263  175.244  174.828  173.425  174.081  173.829  174.851  174.981  173.207  173.492  173.273  175.134  175.459  173.913  173.920  173.191  173.782  174.927  180.236  173.316  173.443  173.510  173.709  174.050  173.534  174.448  173.751  174.824  173.602  175.392  173.364  173.855  174.223  174.035  174.359  174.413  174.450  174.528  174.973  174.338  174.170  174.415  175.104  175.626  174.032  175.495  175.481  176.079  174.339  174.796  175.868  174.221  174.778  175.044  174.666  174.619  174.024  173.868  174.371  173.577  173.948  173.775  174.386  174.226  173.717  174.306  174.097  173.820  174.053  174.318  175.109  174.673  175.108  176.369  175.289  175.965  175.434  174.425  174.103  173.741  172.726  172.996  219.206  176.499 
DATE 2015:202:14:46:50 obsn  48 az 322 el 32 freq_MHz  1415.0000 Tsys 165.800 Tant  8.667 vlsr  -27.26 glat -2.092 glon 111.560 source CasA 
Fstart 1413.997 fstop 1416.003 spacing 0.009375 bw    2.400 fbw    2.000 MHz nfreq 256 nsam 1048576 npoint 214 integ   103 sigma    0.169 bsw 0
Spectrum 
 177.586  175.992  175.400  175.195  175.292  175.548  174.931  175.033  175.386  174.578  174.125  174.252  173.494  173.683  173.435  173.101  174.185  173.682  173.395  175.116  173.864  174.986  173.827  174.068  175.116  174.348  174.403  175.085  175.073  175.801  178.552  174.485  174.837  175.174  175.693  174.554  176.087  175.362  175.516  175.355  176.570  174.377  175.864  182.343  174.450  174.494  174.622  174.911  174.224  175.131  173.428  174.190  173.925  173.817  174.521  174.215  173.592  174.912  174.049  174.660  174.019  174.456  174.253  173.988  174.115  174.085  173.703  173.567  173.879  173.716  174.560  174.047  173.935  173.919  173.797  175.565  173.242  173.887  174.361  173.166  175.071  173.035  172.774  172.988  172.868  173.286  173.696  173.611  172.868  172.258  173.128  173.447  173.170  172.702  172.499  174.165  173.066  173.519  173.757  173.419  173.378  173.373  173.514  173.002  173.249  173.296  174.403  173.454  173.158  173.049  173.109  173.979  173.512  173.397  173.741  173.364  173.173  174.144  175.002  173.387  173.162  174.245  173.280  173.271  173.880  173.733  174.285  173.417  173.895  173.302  173.238  175.271  174.757  173.420  174.116  173.847  174.864  174.937  173.187  173.501  173.266  175.111  175.438  173.903  173.906  173.210  173.785  174.942  180.270  173.344  173.378  173.494  173.678  174.038  173.564  174.431  173.720  174.829  173.570  175.369  173.351  173.812  174.203  174.039  174.334  174.402  174.402  174.567  174.991  174.358  174.150  174.369  175.105  175.639  174.039  175.514  175.478  176.046  174.350  174.740  175.837  174.230  174.762  175.061  174.686  174.618  174.024  173.863  174.317  173.571  173.927  173.769  174.391  174.250  173.704  174.293  174.105  173.826  174.056  174.320  175.085  174.629  175.108  176.302  175.272  175.943  175.424  174.433  174.089  173.725  172.693  173.037  219.835  176.480 
